# Constants and Parameters

# Final flow velocity (u_f): 1000 (m/s) - The final velocity of the flow
# Initial particle velocity (u_0): 0 (m/s) - The initial velocity of the particle
# Particle radius (r_is): 1e-05 (m) - The radius of the particle
# Nozzle radius (r_n): 0.5 (m) - The radius of the nozzle
# Particle density (q): 7874 (kg/m^3) - The density of the particle
# Gas density (q_g): 1.2754 (kg/m^3) - The density of the gas
# Gas constant (R): 8.31446 (J/(kg*K)) - The specific gas constant
# Gamma: 1.4# Molar mass of air (M): 0.029 (kg/mol) - The molar mass of air
# Gas temperature (T): 300 (K) - The temperature of the gas
# Reference temperature (T_0): 291.15 (K) - The reference temperature for gas
# Reference viscosity (eta_0): 1.827e-05 (Pa*s) - The reference viscosity of the gas
# Specific heat capacity of the gas (Cp): 460 (J/(kg*K)) - The specific heat capacity of the gas
# Speed of sound (Sound speed): 347.011 (m/s) - The speed of sound in the gas
# Dynamic viscosity (Viscosity): 1.91093e-05 (Pa*s) - The dynamic viscosity of the gas






# i  t  v  x  h  fi
0 0 0 0 0.001 227.436
1 0.001 188.922 0.0944609 0.0008 193.874
2 0.0018 300.125 0.290079 0.00064 175.796
3 0.00244 372.359 0.505274 0.000512 165.087
4 0.002952 442.651 0.713916 0.0004096 336.102
5 0.0033616 508.36 0.908683 0.00032768 260.327
6 0.00368928 543.508 1.08102 0.000262144 196.907
7 0.00395142 564.423 1.22624 0.000209715 162.903
8 0.00416114 578.13 1.34605 0.000167772 142.861
9 0.00432891 587.663 1.44384 0.000134218 130.015
10 0.00446313 594.553 1.52318 0.000107374 121.284
11 0.0045705 599.664 1.58729 8.58993e-05 115.101
12 0.0046564 603.524 1.63897 6.87195e-05 110.592
13 0.00472512 606.48 1.68054 5.49756e-05 107.232
14 0.0047801 608.766 1.71395 4.39805e-05 104.688
15 0.00482408 610.546 1.74076 3.51844e-05 102.738
16 0.00485926 611.941 1.76227 2.81475e-05 101.23
17 0.00488741 613.039 1.77951 2.2518e-05 100.056
18 0.00490993 613.906 1.79332 1.80144e-05 99.1353
19 0.00492794 614.592 1.80439 1.44115e-05 98.4112
20 0.00494235 615.137 1.81325 1.15292e-05 97.8396
21 0.00495388 615.569 1.82034 9.22337e-06 97.387
22 0.00496311 615.914 1.82602 7.3787e-06 97.028
23 0.00497049 616.188 1.83057 5.90296e-06 96.7426
24 0.00497639 616.407 1.8342 4.72237e-06 96.5156
25 0.00498111 616.582 1.83712 4.72237e-06 96.3347
26 0.00498583 616.756 1.84003 4.72237e-06 96.1545
27 0.00499056 616.93 1.84294 4.72237e-06 95.975
28 0.00499528 617.103 1.84585 4.72237e-06 95.7961
29 0.005 617.276 1.84877 4.72237e-06 95.618
30 0.00500472 617.449 1.85168 4.72237e-06 95.4404
31 0.00500944 617.621 1.8546 4.72237e-06 95.2636
32 0.00501417 617.793 1.85752 4.72237e-06 95.0874
33 0.00501889 617.964 1.86044 4.72237e-06 94.9118
34 0.00502361 618.135 1.86335 4.72237e-06 94.7369
35 0.00502833 618.306 1.86627 4.72237e-06 94.5627
36 0.00503306 618.476 1.86919 4.72237e-06 94.3891
37 0.00503778 618.646 1.87211 4.72237e-06 94.2161
38 0.0050425 618.816 1.87504 4.72237e-06 94.0437
39 0.00504722 618.985 1.87796 4.72237e-06 93.872
40 0.00505195 619.154 1.88088 4.72237e-06 93.7009
41 0.00505667 619.322 1.88381 4.72237e-06 93.5305
42 0.00506139 619.49 1.88673 4.72237e-06 93.3606
43 0.00506611 619.657 1.88966 4.72237e-06 93.1914
44 0.00507084 619.825 1.89258 4.72237e-06 93.0228
45 0.00507556 619.991 1.89551 4.72237e-06 92.8548
46 0.00508028 620.158 1.89844 4.72237e-06 92.6874
47 0.005085 620.324 1.90137 4.72237e-06 92.5206
48 0.00508972 620.49 1.9043 4.72237e-06 92.3544
49 0.00509445 620.655 1.90723 4.72237e-06 92.1888
50 0.00509917 620.82 1.91016 4.72237e-06 92.0238
51 0.00510389 620.985 1.91309 4.72237e-06 91.8594
52 0.00510861 621.149 1.91603 4.72237e-06 91.6956
53 0.00511334 621.313 1.91896 4.72237e-06 91.5324
54 0.00511806 621.476 1.92189 4.72237e-06 91.3697
55 0.00512278 621.639 1.92483 4.72237e-06 91.2076
56 0.0051275 621.802 1.92777 4.72237e-06 91.0461
57 0.00513223 621.964 1.9307 4.72237e-06 90.8852
58 0.00513695 622.127 1.93364 4.72237e-06 90.7249
59 0.00514167 622.288 1.93658 4.72237e-06 90.5651
60 0.00514639 622.45 1.93952 4.72237e-06 90.4058
61 0.00515112 622.611 1.94246 4.72237e-06 90.2472
62 0.00515584 622.771 1.9454 4.72237e-06 90.089
63 0.00516056 622.932 1.94834 4.72237e-06 89.9315
64 0.00516528 623.092 1.95128 4.72237e-06 89.7745
65 0.00517001 623.251 1.95422 4.72237e-06 89.618
66 0.00517473 623.41 1.95717 4.72237e-06 89.4621
67 0.00517945 623.569 1.96011 4.72237e-06 89.3067
68 0.00518417 623.728 1.96306 4.72237e-06 89.1519
69 0.00518889 623.886 1.966 4.72237e-06 88.9976
70 0.00519362 624.044 1.96895 4.72237e-06 88.8438
71 0.00519834 624.202 1.9719 4.72237e-06 88.6906
72 0.00520306 624.359 1.97484 4.72237e-06 88.5379
73 0.00520778 624.516 1.97779 4.72237e-06 88.3857
74 0.00521251 624.672 1.98074 4.72237e-06 88.234
75 0.00521723 624.829 1.98369 4.72237e-06 88.0829
76 0.00522195 624.984 1.98664 4.72237e-06 87.9323
77 0.00522667 625.14 1.9896 4.72237e-06 87.7822
78 0.0052314 625.295 1.99255 4.72237e-06 87.6326
79 0.00523612 625.45 1.9955 4.72237e-06 87.4835
80 0.00524084 625.605 1.99846 4.72237e-06 87.3349
81 0.00524556 625.759 2.00141 4.72237e-06 87.1868
82 0.00525029 625.913 2.00437 4.72237e-06 87.0392
83 0.00525501 626.067 2.00732 4.72237e-06 86.8922
84 0.00525973 626.22 2.01028 4.72237e-06 86.7456
85 0.00526445 626.373 2.01324 4.72237e-06 86.5995
86 0.00526917 626.525 2.01619 4.72237e-06 86.4539
87 0.0052739 626.678 2.01915 4.72237e-06 86.3088
88 0.00527862 626.83 2.02211 4.72237e-06 86.1642
89 0.00528334 626.981 2.02507 4.72237e-06 86.0201
90 0.00528806 627.133 2.02804 4.72237e-06 85.8764
91 0.00529279 627.284 2.031 4.72237e-06 85.7333
92 0.00529751 627.435 2.03396 4.72237e-06 85.5906
93 0.00530223 627.585 2.03692 4.72237e-06 85.4483
94 0.00530695 627.735 2.03989 4.72237e-06 85.3066
95 0.00531168 627.885 2.04285 4.72237e-06 85.1653
96 0.0053164 628.034 2.04582 4.72237e-06 85.0245
97 0.00532112 628.184 2.04878 4.72237e-06 84.8842
98 0.00532584 628.333 2.05175 4.72237e-06 84.7443
99 0.00533057 628.481 2.05472 4.72237e-06 84.6048
100 0.00533529 628.629 2.05769 4.72237e-06 84.4659
101 0.00534001 628.777 2.06066 4.72237e-06 84.3274
102 0.00534473 628.925 2.06362 4.72237e-06 84.1893
103 0.00534946 629.072 2.0666 4.72237e-06 84.0517
104 0.00535418 629.22 2.06957 4.72237e-06 83.9146
105 0.0053589 629.366 2.07254 4.72237e-06 83.7778
106 0.00536362 629.513 2.07551 4.72237e-06 83.6416
107 0.00536834 629.659 2.07848 4.72237e-06 83.5058
108 0.00537307 629.805 2.08146 4.72237e-06 83.3704
109 0.00537779 629.95 2.08443 4.72237e-06 83.2354
110 0.00538251 630.096 2.08741 4.72237e-06 83.1009
111 0.00538723 630.241 2.09038 4.72237e-06 82.9669
112 0.00539196 630.386 2.09336 4.72237e-06 82.8332
113 0.00539668 630.53 2.09634 4.72237e-06 82.7
114 0.0054014 630.674 2.09931 4.72237e-06 82.5672
115 0.00540612 630.818 2.10229 4.72237e-06 82.4349
116 0.00541085 630.962 2.10527 4.72237e-06 82.3029
117 0.00541557 631.105 2.10825 4.72237e-06 82.1714
118 0.00542029 631.248 2.11123 4.72237e-06 82.0403
119 0.00542501 631.391 2.11421 4.72237e-06 81.9097
120 0.00542974 631.533 2.1172 4.72237e-06 81.7794
121 0.00543446 631.675 2.12018 4.72237e-06 81.6496
122 0.00543918 631.817 2.12316 4.72237e-06 81.5201
123 0.0054439 631.959 2.12615 4.72237e-06 81.3911
124 0.00544862 632.1 2.12913 4.72237e-06 81.2625
125 0.00545335 632.241 2.13212 4.72237e-06 81.1343
126 0.00545807 632.382 2.1351 4.72237e-06 81.0065
127 0.00546279 632.522 2.13809 4.72237e-06 80.8791
128 0.00546751 632.662 2.14108 4.72237e-06 80.7521
129 0.00547224 632.802 2.14406 4.72237e-06 80.6254
130 0.00547696 632.942 2.14705 4.72237e-06 80.4992
131 0.00548168 633.081 2.15004 4.72237e-06 80.3734
132 0.0054864 633.221 2.15303 4.72237e-06 80.248
133 0.00549113 633.359 2.15602 4.72237e-06 80.123
134 0.00549585 633.498 2.15901 4.72237e-06 79.9983
135 0.00550057 633.636 2.16201 4.72237e-06 79.8741
136 0.00550529 633.774 2.165 4.72237e-06 79.7502
137 0.00551002 633.912 2.16799 4.72237e-06 79.6267
138 0.00551474 634.05 2.17099 4.72237e-06 79.5036
139 0.00551946 634.187 2.17398 4.72237e-06 79.3809
140 0.00552418 634.324 2.17698 4.72237e-06 79.2585
141 0.00552891 634.461 2.17997 4.72237e-06 79.1365
142 0.00553363 634.597 2.18297 4.72237e-06 79.0149
143 0.00553835 634.733 2.18597 4.72237e-06 78.8937
144 0.00554307 634.869 2.18896 4.72237e-06 78.7729
145 0.00554779 635.005 2.19196 4.72237e-06 78.6524
146 0.00555252 635.141 2.19496 4.72237e-06 78.5323
147 0.00555724 635.276 2.19796 4.72237e-06 78.4125
148 0.00556196 635.411 2.20096 4.72237e-06 78.2931
149 0.00556668 635.545 2.20396 4.72237e-06 78.1741
150 0.00557141 635.68 2.20696 4.72237e-06 78.0555
151 0.00557613 635.814 2.20997 4.72237e-06 77.9372
152 0.00558085 635.948 2.21297 4.72237e-06 77.8192
153 0.00558557 636.081 2.21597 4.72237e-06 77.7016
154 0.0055903 636.215 2.21898 4.72237e-06 77.5844
155 0.00559502 636.348 2.22198 4.72237e-06 77.4675
156 0.00559974 636.481 2.22499 4.72237e-06 77.351
157 0.00560446 636.614 2.22799 4.72237e-06 77.2348
158 0.00560919 636.746 2.231 4.72237e-06 77.119
159 0.00561391 636.878 2.23401 4.72237e-06 77.0035
160 0.00561863 637.01 2.23701 4.72237e-06 76.8884
161 0.00562335 637.142 2.24002 4.72237e-06 76.7736
162 0.00562807 637.273 2.24303 4.72237e-06 76.6591
163 0.0056328 637.404 2.24604 4.72237e-06 76.545
164 0.00563752 637.535 2.24905 4.72237e-06 76.4312
165 0.00564224 637.666 2.25206 4.72237e-06 76.3178
166 0.00564696 637.797 2.25507 4.72237e-06 76.2047
167 0.00565169 637.927 2.25809 4.72237e-06 76.092
168 0.00565641 638.057 2.2611 4.72237e-06 75.9795
169 0.00566113 638.187 2.26411 4.72237e-06 75.8674
170 0.00566585 638.316 2.26713 4.72237e-06 75.7557
171 0.00567058 638.445 2.27014 4.72237e-06 75.6442
172 0.0056753 638.574 2.27316 4.72237e-06 75.5331
173 0.00568002 638.703 2.27617 4.72237e-06 75.4223
174 0.00568474 638.832 2.27919 4.72237e-06 75.3119
175 0.00568947 638.96 2.28221 4.72237e-06 75.2017
176 0.00569419 639.088 2.28522 4.72237e-06 75.0919
177 0.00569891 639.216 2.28824 4.72237e-06 74.9824
178 0.00570363 639.344 2.29126 4.72237e-06 74.8733
179 0.00570835 639.471 2.29428 4.72237e-06 74.7644
180 0.00571308 639.598 2.2973 4.72237e-06 74.6559
181 0.0057178 639.725 2.30032 4.72237e-06 74.5476
182 0.00572252 639.852 2.30334 4.72237e-06 74.4397
183 0.00572724 639.978 2.30636 4.72237e-06 74.3321
184 0.00573197 640.105 2.30939 4.72237e-06 74.2248
185 0.00573669 640.231 2.31241 4.72237e-06 74.1179
186 0.00574141 640.356 2.31543 4.72237e-06 74.0112
187 0.00574613 640.482 2.31846 4.72237e-06 73.9048
188 0.00575086 640.607 2.32148 4.72237e-06 73.7988
189 0.00575558 640.733 2.32451 4.72237e-06 73.693
190 0.0057603 640.857 2.32753 4.72237e-06 73.5876
191 0.00576502 640.982 2.33056 4.72237e-06 73.4824
192 0.00576975 641.107 2.33359 4.72237e-06 73.3776
193 0.00577447 641.231 2.33662 4.72237e-06 73.273
194 0.00577919 641.355 2.33964 4.72237e-06 73.1688
195 0.00578391 641.479 2.34267 4.72237e-06 73.0648
196 0.00578864 641.602 2.3457 4.72237e-06 72.9611
197 0.00579336 641.726 2.34873 4.72237e-06 72.8578
198 0.00579808 641.849 2.35176 4.72237e-06 72.7547
199 0.0058028 641.972 2.3548 4.72237e-06 72.6519
200 0.00580752 642.095 2.35783 4.72237e-06 72.5494
201 0.00581225 642.217 2.36086 4.72237e-06 72.4472
202 0.00581697 642.339 2.36389 4.72237e-06 72.3453
203 0.00582169 642.461 2.36693 4.72237e-06 72.2437
204 0.00582641 642.583 2.36996 4.72237e-06 72.1424
205 0.00583114 642.705 2.373 4.72237e-06 72.0413
206 0.00583586 642.826 2.37603 4.72237e-06 71.9405
207 0.00584058 642.948 2.37907 4.72237e-06 71.84
208 0.0058453 643.069 2.3821 4.72237e-06 71.7398
209 0.00585003 643.19 2.38514 4.72237e-06 71.6399
210 0.00585475 643.31 2.38818 4.72237e-06 71.5402
211 0.00585947 643.431 2.39122 4.72237e-06 71.4409
212 0.00586419 643.551 2.39426 4.72237e-06 71.3418
213 0.00586892 643.671 2.39729 4.72237e-06 71.243
214 0.00587364 643.79 2.40033 4.72237e-06 71.1444
215 0.00587836 643.91 2.40338 4.72237e-06 71.0461
216 0.00588308 644.029 2.40642 4.72237e-06 70.9481
217 0.0058878 644.149 2.40946 4.72237e-06 70.8504
218 0.00589253 644.268 2.4125 4.72237e-06 70.7529
219 0.00589725 644.386 2.41554 4.72237e-06 70.6557
220 0.00590197 644.505 2.41859 4.72237e-06 70.5588
221 0.00590669 644.623 2.42163 4.72237e-06 70.4622
222 0.00591142 644.741 2.42467 4.72237e-06 70.3658
223 0.00591614 644.859 2.42772 4.72237e-06 70.2696
224 0.00592086 644.977 2.43077 4.72237e-06 70.1738
225 0.00592558 645.095 2.43381 4.72237e-06 70.0782
226 0.00593031 645.212 2.43686 4.72237e-06 69.9828
227 0.00593503 645.329 2.4399 4.72237e-06 69.8877
228 0.00593975 645.446 2.44295 4.72237e-06 69.7929
229 0.00594447 645.563 2.446 4.72237e-06 69.6984
230 0.0059492 645.679 2.44905 4.72237e-06 69.604
231 0.00595392 645.796 2.4521 4.72237e-06 69.51
232 0.00595864 645.912 2.45515 4.72237e-06 69.4162
233 0.00596336 646.028 2.4582 4.72237e-06 69.3227
234 0.00596809 646.144 2.46125 4.72237e-06 69.2294
235 0.00597281 646.259 2.4643 4.72237e-06 69.1363
236 0.00597753 646.375 2.46735 4.72237e-06 69.0435
237 0.00598225 646.49 2.47041 4.72237e-06 68.951
238 0.00598697 646.605 2.47346 4.72237e-06 68.8587
239 0.0059917 646.72 2.47651 4.72237e-06 68.7667
240 0.00599642 646.834 2.47957 4.72237e-06 68.6749
241 0.00600114 646.949 2.48262 4.72237e-06 68.5833
242 0.00600586 647.063 2.48568 4.72237e-06 68.492
243 0.00601059 647.177 2.48873 4.72237e-06 68.401
244 0.00601531 647.291 2.49179 4.72237e-06 68.3102
245 0.00602003 647.405 2.49485 4.72237e-06 68.2196
246 0.00602475 647.518 2.49791 4.72237e-06 68.1293
247 0.00602948 647.631 2.50096 4.72237e-06 68.0392
248 0.0060342 647.745 2.50402 4.72237e-06 67.9493
249 0.00603892 647.857 2.50708 4.72237e-06 67.8597
250 0.00604364 647.97 2.51014 4.72237e-06 67.7703
251 0.00604837 648.083 2.5132 4.72237e-06 67.6812
252 0.00605309 648.195 2.51626 4.72237e-06 67.5923
253 0.00605781 648.307 2.51932 4.72237e-06 67.5036
254 0.00606253 648.419 2.52239 4.72237e-06 67.4152
255 0.00606725 648.531 2.52545 4.72237e-06 67.327
256 0.00607198 648.643 2.52851 4.72237e-06 67.239
257 0.0060767 648.754 2.53157 4.72237e-06 67.1513
258 0.00608142 648.866 2.53464 4.72237e-06 67.0638
259 0.00608614 648.977 2.5377 4.72237e-06 66.9765
260 0.00609087 649.088 2.54077 4.72237e-06 66.8895
261 0.00609559 649.198 2.54383 4.72237e-06 66.8026
262 0.00610031 649.309 2.5469 4.72237e-06 66.716
263 0.00610503 649.419 2.54997 4.72237e-06 66.6297
264 0.00610976 649.53 2.55303 4.72237e-06 66.5435
265 0.00611448 649.64 2.5561 4.72237e-06 66.4576
266 0.0061192 649.75 2.55917 4.72237e-06 66.3719
267 0.00612392 649.859 2.56224 4.72237e-06 66.2865
268 0.00612865 649.969 2.56531 4.72237e-06 66.2012
269 0.00613337 650.078 2.56838 4.72237e-06 66.1162
270 0.00613809 650.187 2.57145 4.72237e-06 66.0314
271 0.00614281 650.296 2.57452 4.72237e-06 65.9468
272 0.00614754 650.405 2.57759 4.72237e-06 65.8624
273 0.00615226 650.514 2.58066 4.72237e-06 65.7783
274 0.00615698 650.622 2.58373 4.72237e-06 65.6943
275 0.0061617 650.731 2.5868 4.72237e-06 65.6106
276 0.00616642 650.839 2.58988 4.72237e-06 65.5271
277 0.00617115 650.947 2.59295 4.72237e-06 65.4438
278 0.00617587 651.054 2.59603 4.72237e-06 65.3608
279 0.00618059 651.162 2.5991 4.72237e-06 65.2779
280 0.00618531 651.27 2.60218 4.72237e-06 65.1952
281 0.00619004 651.377 2.60525 4.72237e-06 65.1128
282 0.00619476 651.484 2.60833 4.72237e-06 65.0306
283 0.00619948 651.591 2.6114 4.72237e-06 64.9486
284 0.0062042 651.698 2.61448 4.72237e-06 64.8668
285 0.00620893 651.804 2.61756 4.72237e-06 64.7852
286 0.00621365 651.911 2.62064 4.72237e-06 64.7038
287 0.00621837 652.017 2.62372 4.72237e-06 64.6226
288 0.00622309 652.123 2.6268 4.72237e-06 64.5416
289 0.00622782 652.229 2.62988 4.72237e-06 64.4608
290 0.00623254 652.335 2.63296 4.72237e-06 64.3803
291 0.00623726 652.44 2.63604 4.72237e-06 64.2999
292 0.00624198 652.546 2.63912 4.72237e-06 64.2197
293 0.0062467 652.651 2.6422 4.72237e-06 64.1398
294 0.00625143 652.756 2.64528 4.72237e-06 64.06
295 0.00625615 652.861 2.64837 4.72237e-06 63.9805
296 0.00626087 652.966 2.65145 4.72237e-06 63.9011
297 0.00626559 653.071 2.65453 4.72237e-06 63.8415
298 0.00627032 653.175 2.65762 4.72237e-06 63.7878
299 0.00627504 653.28 2.6607 4.72237e-06 63.7341
300 0.00627976 653.384 2.66379 4.72237e-06 63.6807
301 0.00628448 653.488 2.66687 4.72237e-06 63.6273
302 0.00628921 653.592 2.66996 4.72237e-06 63.5742
303 0.00629393 653.696 2.67305 4.72237e-06 63.5212
304 0.00629865 653.8 2.67613 4.72237e-06 63.4683
305 0.00630337 653.904 2.67922 4.72237e-06 63.4156
306 0.0063081 654.007 2.68231 4.72237e-06 63.3631
307 0.00631282 654.111 2.6854 4.72237e-06 63.3107
308 0.00631754 654.214 2.68849 4.72237e-06 63.2584
309 0.00632226 654.317 2.69158 4.72237e-06 63.2063
310 0.00632698 654.42 2.69467 4.72237e-06 63.1544
311 0.00633171 654.523 2.69776 4.72237e-06 63.1026
312 0.00633643 654.626 2.70085 4.72237e-06 63.0509
313 0.00634115 654.729 2.70394 4.72237e-06 62.9994
314 0.00634587 654.832 2.70703 4.72237e-06 62.9481
315 0.0063506 654.934 2.71012 4.72237e-06 62.8969
316 0.00635532 655.037 2.71322 4.72237e-06 62.8458
317 0.00636004 655.139 2.71631 4.72237e-06 62.7949
318 0.00636476 655.241 2.71941 4.72237e-06 62.7441
319 0.00636949 655.343 2.7225 4.72237e-06 62.6935
320 0.00637421 655.445 2.72559 4.72237e-06 62.643
321 0.00637893 655.547 2.72869 4.72237e-06 62.5927
322 0.00638365 655.649 2.73179 4.72237e-06 62.5425
323 0.00638838 655.751 2.73488 4.72237e-06 62.4924
324 0.0063931 655.852 2.73798 4.72237e-06 62.4425
325 0.00639782 655.954 2.74108 4.72237e-06 62.3927
326 0.00640254 656.055 2.74417 4.72237e-06 62.3431
327 0.00640727 656.156 2.74727 4.72237e-06 62.2936
328 0.00641199 656.257 2.75037 4.72237e-06 62.2442
329 0.00641671 656.358 2.75347 4.72237e-06 62.195
330 0.00642143 656.459 2.75657 4.72237e-06 62.1459
331 0.00642615 656.56 2.75967 4.72237e-06 62.097
332 0.00643088 656.661 2.76277 4.72237e-06 62.0481
333 0.0064356 656.761 2.76587 4.72237e-06 61.9995
334 0.00644032 656.861 2.76898 4.72237e-06 61.9509
335 0.00644504 656.962 2.77208 4.72237e-06 61.9025
336 0.00644977 657.062 2.77518 4.72237e-06 61.8543
337 0.00645449 657.162 2.77828 4.72237e-06 61.8061
338 0.00645921 657.262 2.78139 4.72237e-06 61.7581
339 0.00646393 657.362 2.78449 5.1946e-06 61.7102
340 0.00646913 657.472 2.78791 5.1946e-06 61.6577
341 0.00647432 657.581 2.79132 5.1946e-06 61.6054
342 0.00647952 657.691 2.79474 5.1946e-06 61.5532
343 0.00648471 657.8 2.79815 5.1946e-06 61.5012
344 0.00648991 657.91 2.80157 5.1946e-06 61.4493
345 0.0064951 658.019 2.80499 5.1946e-06 61.3976
346 0.0065003 658.128 2.80841 5.1946e-06 61.346
347 0.00650549 658.237 2.81183 5.1946e-06 61.2946
348 0.00651069 658.345 2.81525 5.1946e-06 61.2433
349 0.00651588 658.454 2.81867 5.1946e-06 61.1922
350 0.00652107 658.563 2.82209 5.1946e-06 61.1412
351 0.00652627 658.671 2.82551 5.1946e-06 61.0904
352 0.00653146 658.779 2.82893 5.1946e-06 61.0398
353 0.00653666 658.887 2.83235 5.1946e-06 60.9893
354 0.00654185 658.995 2.83578 5.1946e-06 60.9389
355 0.00654705 659.103 2.8392 5.1946e-06 60.8887
356 0.00655224 659.211 2.84262 5.1946e-06 60.8387
357 0.00655744 659.319 2.84605 5.1946e-06 60.7888
358 0.00656263 659.426 2.84947 5.1946e-06 60.739
359 0.00656783 659.534 2.8529 5.1946e-06 60.6894
360 0.00657302 659.641 2.85632 5.1946e-06 60.6399
361 0.00657821 659.748 2.85975 5.1946e-06 60.5906
362 0.00658341 659.855 2.86318 5.1946e-06 60.5414
363 0.0065886 659.962 2.86661 5.1946e-06 60.4924
364 0.0065938 660.069 2.87004 5.1946e-06 60.4435
365 0.00659899 660.175 2.87346 5.1946e-06 60.3947
366 0.00660419 660.282 2.87689 5.1946e-06 60.3461
367 0.00660938 660.388 2.88032 5.1946e-06 60.2976
368 0.00661458 660.495 2.88376 5.1946e-06 60.2493
369 0.00661977 660.601 2.88719 5.1946e-06 60.2011
370 0.00662497 660.707 2.89062 5.1946e-06 60.153
371 0.00663016 660.813 2.89405 5.1946e-06 60.1051
372 0.00663536 660.919 2.89748 5.1946e-06 60.0574
373 0.00664055 661.024 2.90092 5.1946e-06 60.0097
374 0.00664574 661.13 2.90435 5.1946e-06 59.9622
375 0.00665094 661.236 2.90779 5.1946e-06 59.9148
376 0.00665613 661.341 2.91122 5.1946e-06 59.8676
377 0.00666133 661.446 2.91466 5.1946e-06 59.8205
378 0.00666652 661.551 2.91809 5.1946e-06 59.7736
379 0.00667172 661.656 2.92153 5.1946e-06 59.7267
380 0.00667691 661.761 2.92497 5.1946e-06 59.68
381 0.00668211 661.866 2.9284 5.1946e-06 59.6335
382 0.0066873 661.971 2.93184 5.1946e-06 59.587
383 0.0066925 662.075 2.93528 5.1946e-06 59.5407
384 0.00669769 662.18 2.93872 5.1946e-06 59.4946
385 0.00670289 662.284 2.94216 5.1946e-06 59.4485
386 0.00670808 662.388 2.9456 5.1946e-06 59.4026
387 0.00671327 662.493 2.94904 5.1946e-06 59.3568
388 0.00671847 662.597 2.95249 5.1946e-06 59.3112
389 0.00672366 662.7 2.95593 5.1946e-06 59.2657
390 0.00672886 662.804 2.95937 5.1946e-06 59.2203
391 0.00673405 662.908 2.96281 5.1946e-06 59.175
392 0.00673925 663.011 2.96626 5.1946e-06 59.1298
393 0.00674444 663.115 2.9697 5.1946e-06 59.0848
394 0.00674964 663.218 2.97315 5.1946e-06 59.0399
395 0.00675483 663.321 2.97659 5.1946e-06 58.9952
396 0.00676003 663.425 2.98004 5.1946e-06 58.9505
397 0.00676522 663.528 2.98348 5.1946e-06 58.906
398 0.00677042 663.631 2.98693 5.1946e-06 58.8616
399 0.00677561 663.733 2.99038 5.1946e-06 58.8173
400 0.0067808 663.836 2.99383 5.1946e-06 58.7732
401 0.006786 663.939 2.99728 5.1946e-06 58.7291
402 0.00679119 664.041 3.00072 5.1946e-06 58.6852
403 0.00679639 664.143 3.00417 5.1946e-06 58.6414
404 0.00680158 664.246 3.00762 5.1946e-06 58.5978
405 0.00680678 664.348 3.01108 5.1946e-06 58.5542
406 0.00681197 664.45 3.01453 5.1946e-06 58.5108
407 0.00681717 664.552 3.01798 5.1946e-06 58.4675
408 0.00682236 664.654 3.02143 5.1946e-06 58.4243
409 0.00682756 664.755 3.02488 5.1946e-06 58.3812
410 0.00683275 664.857 3.02834 5.1946e-06 58.3382
411 0.00683795 664.958 3.03179 5.1946e-06 58.2954
412 0.00684314 665.06 3.03525 5.1946e-06 58.2527
413 0.00684833 665.161 3.0387 5.1946e-06 58.21
414 0.00685353 665.262 3.04216 5.1946e-06 58.1675
415 0.00685872 665.363 3.04561 5.1946e-06 58.1252
416 0.00686392 665.464 3.04907 5.1946e-06 58.0829
417 0.00686911 665.565 3.05253 5.1946e-06 58.0407
418 0.00687431 665.666 3.05598 5.1946e-06 57.9987
419 0.0068795 665.767 3.05944 5.1946e-06 57.9568
420 0.0068847 665.867 3.0629 5.1946e-06 57.9149
421 0.00688989 665.968 3.06636 5.1946e-06 57.8732
422 0.00689509 666.068 3.06982 5.1946e-06 57.8316
423 0.00690028 666.168 3.07328 5.1946e-06 57.7901
424 0.00690547 666.269 3.07674 5.1946e-06 57.7488
425 0.00691067 666.369 3.0802 5.1946e-06 57.7075
426 0.00691586 666.469 3.08366 5.71406e-06 57.6664
427 0.00692158 666.579 3.08747 5.71406e-06 57.6212
428 0.00692729 666.688 3.09128 5.71406e-06 57.5762
429 0.00693301 666.798 3.09509 5.71406e-06 57.5313
430 0.00693872 666.907 3.0989 5.71406e-06 57.4866
431 0.00694443 667.017 3.10271 5.71406e-06 57.4419
432 0.00695015 667.126 3.10652 5.71406e-06 57.3974
433 0.00695586 667.235 3.11034 5.71406e-06 57.3531
434 0.00696158 667.344 3.11415 5.71406e-06 57.3088
435 0.00696729 667.453 3.11796 5.71406e-06 57.2647
436 0.006973 667.562 3.12178 5.71406e-06 57.2207
437 0.00697872 667.67 3.12559 5.71406e-06 57.1769
438 0.00698443 667.779 3.12941 5.71406e-06 57.1331
439 0.00699015 667.887 3.13322 5.71406e-06 57.0895
440 0.00699586 667.995 3.13704 5.71406e-06 57.0461
441 0.00700158 668.104 3.14086 5.71406e-06 57.0027
442 0.00700729 668.212 3.14467 5.71406e-06 56.9595
443 0.007013 668.32 3.14849 5.71406e-06 56.9163
444 0.00701872 668.427 3.15231 5.71406e-06 56.8734
445 0.00702443 668.535 3.15613 5.71406e-06 56.8305
446 0.00703015 668.643 3.15995 5.71406e-06 56.7877
447 0.00703586 668.75 3.16377 5.71406e-06 56.7451
448 0.00704157 668.857 3.1676 5.71406e-06 56.7026
449 0.00704729 668.965 3.17142 5.71406e-06 56.6602
450 0.007053 669.072 3.17524 5.71406e-06 56.6179
451 0.00705872 669.179 3.17906 5.71406e-06 56.5758
452 0.00706443 669.286 3.18289 5.71406e-06 56.5338
453 0.00707014 669.393 3.18671 5.71406e-06 56.4918
454 0.00707586 669.499 3.19054 5.71406e-06 56.45
455 0.00708157 669.606 3.19436 5.71406e-06 56.4084
456 0.00708729 669.712 3.19819 5.71406e-06 56.3668
457 0.007093 669.818 3.20202 5.71406e-06 56.3253
458 0.00709871 669.925 3.20584 5.71406e-06 56.284
459 0.00710443 670.031 3.20967 5.71406e-06 56.2428
460 0.00711014 670.137 3.2135 5.71406e-06 56.2017
461 0.00711586 670.243 3.21733 5.71406e-06 56.1607
462 0.00712157 670.348 3.22116 5.71406e-06 56.1198
463 0.00712728 670.454 3.22499 5.71406e-06 56.079
464 0.007133 670.56 3.22882 5.71406e-06 56.0384
465 0.00713871 670.665 3.23266 5.71406e-06 55.9978
466 0.00714443 670.77 3.23649 5.71406e-06 55.9574
467 0.00715014 670.876 3.24032 5.71406e-06 55.9171
468 0.00715585 670.981 3.24415 5.71406e-06 55.8769
469 0.00716157 671.086 3.24799 5.71406e-06 55.8368
470 0.00716728 671.191 3.25182 5.71406e-06 55.7968
471 0.007173 671.295 3.25566 5.71406e-06 55.7569
472 0.00717871 671.4 3.2595 5.71406e-06 55.7171
473 0.00718443 671.505 3.26333 5.71406e-06 55.6774
474 0.00719014 671.609 3.26717 5.71406e-06 55.6379
475 0.00719585 671.713 3.27101 5.71406e-06 55.5984
476 0.00720157 671.818 3.27485 5.71406e-06 55.5591
477 0.00720728 671.922 3.27869 5.71406e-06 55.5198
478 0.007213 672.026 3.28252 5.71406e-06 55.4807
479 0.00721871 672.13 3.28637 5.71406e-06 55.4417
480 0.00722442 672.234 3.29021 5.71406e-06 55.4027
481 0.00723014 672.337 3.29405 5.71406e-06 55.3639
482 0.00723585 672.441 3.29789 5.71406e-06 55.3252
483 0.00724157 672.544 3.30173 5.71406e-06 55.2866
484 0.00724728 672.648 3.30558 5.71406e-06 55.2481
485 0.00725299 672.751 3.30942 5.71406e-06 55.2096
486 0.00725871 672.854 3.31326 5.71406e-06 55.1713
487 0.00726442 672.957 3.31711 5.71406e-06 55.1331
488 0.00727014 673.06 3.32095 5.71406e-06 55.095
489 0.00727585 673.163 3.3248 5.71406e-06 55.057
490 0.00728156 673.266 3.32865 5.71406e-06 55.0191
491 0.00728728 673.369 3.33249 5.71406e-06 54.9813
492 0.00729299 673.471 3.33634 5.71406e-06 54.9436
493 0.00729871 673.574 3.34019 5.71406e-06 54.906
494 0.00730442 673.676 3.34404 5.71406e-06 54.8685
495 0.00731013 673.778 3.34789 5.71406e-06 54.8311
496 0.00731585 673.88 3.35174 5.71406e-06 54.7938
497 0.00732156 673.982 3.35559 5.71406e-06 54.7566
498 0.00732728 674.084 3.35944 5.71406e-06 54.7194
499 0.00733299 674.186 3.36329 5.71406e-06 54.6824
500 0.0073387 674.288 3.36715 5.71406e-06 54.6455
501 0.00734442 674.39 3.371 5.71406e-06 54.6087
502 0.00735013 674.491 3.37485 5.71406e-06 54.5719
503 0.00735585 674.593 3.37871 5.71406e-06 54.5353
504 0.00736156 674.694 3.38256 5.71406e-06 54.4988
505 0.00736728 674.795 3.38642 5.71406e-06 54.4623
506 0.00737299 674.896 3.39028 5.71406e-06 54.426
507 0.0073787 674.997 3.39413 5.71406e-06 54.3897
508 0.00738442 675.098 3.39799 5.71406e-06 54.3535
509 0.00739013 675.199 3.40185 5.71406e-06 54.3175
510 0.00739585 675.3 3.40571 5.71406e-06 54.2815
511 0.00740156 675.401 3.40956 5.71406e-06 54.2456
512 0.00740727 675.501 3.41342 5.71406e-06 54.2098
513 0.00741299 675.602 3.41728 5.71406e-06 54.1741
514 0.0074187 675.702 3.42115 5.71406e-06 54.1385
515 0.00742442 675.802 3.42501 5.71406e-06 54.1029
516 0.00743013 675.903 3.42887 5.71406e-06 54.0675
517 0.00743584 676.003 3.43273 5.71406e-06 54.0322
518 0.00744156 676.103 3.43659 6.28547e-06 53.9969
519 0.00744784 676.213 3.44084 6.28547e-06 53.9582
520 0.00745413 676.322 3.44509 6.28547e-06 53.9197
521 0.00746041 676.432 3.44935 6.28547e-06 53.8812
522 0.0074667 676.541 3.4536 6.28547e-06 53.8428
523 0.00747299 676.651 3.45785 6.28547e-06 53.8046
524 0.00747927 676.76 3.4621 6.28547e-06 53.7664
525 0.00748556 676.869 3.46636 6.28547e-06 53.7284
526 0.00749184 676.978 3.47061 6.28547e-06 53.6905
527 0.00749813 677.087 3.47487 6.28547e-06 53.6526
528 0.00750441 677.196 3.47912 6.28547e-06 53.6149
529 0.0075107 677.305 3.48338 6.28547e-06 53.5773
530 0.00751698 677.414 3.48764 6.28547e-06 53.5398
531 0.00752327 677.522 3.4919 6.28547e-06 53.5024
532 0.00752955 677.63 3.49616 6.28547e-06 53.465
533 0.00753584 677.739 3.50042 6.28547e-06 53.4278
534 0.00754213 677.847 3.50468 6.28547e-06 53.3907
535 0.00754841 677.955 3.50894 6.28547e-06 53.3537
536 0.0075547 678.063 3.5132 6.28547e-06 53.3168
537 0.00756098 678.171 3.51746 6.28547e-06 53.28
538 0.00756727 678.278 3.52172 6.28547e-06 53.2433
539 0.00757355 678.386 3.52599 6.28547e-06 53.2066
540 0.00757984 678.494 3.53025 6.28547e-06 53.1701
541 0.00758612 678.601 3.53452 6.28547e-06 53.1337
542 0.00759241 678.708 3.53878 6.28547e-06 53.0974
543 0.00759869 678.815 3.54305 6.28547e-06 53.0612
544 0.00760498 678.922 3.54732 6.28547e-06 53.025
545 0.00761127 679.029 3.55158 6.28547e-06 52.989
546 0.00761755 679.136 3.55585 6.28547e-06 52.9531
547 0.00762384 679.243 3.56012 6.28547e-06 52.9172
548 0.00763012 679.35 3.56439 6.28547e-06 52.8815
549 0.00763641 679.456 3.56866 6.28547e-06 52.8458
550 0.00764269 679.563 3.57293 6.28547e-06 52.8103
551 0.00764898 679.669 3.5772 6.28547e-06 52.7748
552 0.00765526 679.775 3.58148 6.28547e-06 52.7395
553 0.00766155 679.881 3.58575 6.28547e-06 52.7042
554 0.00766783 679.987 3.59002 6.28547e-06 52.669
555 0.00767412 680.093 3.5943 6.28547e-06 52.6339
556 0.00768041 680.199 3.59857 6.28547e-06 52.5989
557 0.00768669 680.305 3.60285 6.28547e-06 52.564
558 0.00769298 680.41 3.60712 6.28547e-06 52.5292
559 0.00769926 680.516 3.6114 6.28547e-06 52.4945
560 0.00770555 680.621 3.61568 6.28547e-06 52.4599
561 0.00771183 680.726 3.61996 6.28547e-06 52.4253
562 0.00771812 680.831 3.62424 6.28547e-06 52.3909
563 0.0077244 680.936 3.62852 6.28547e-06 52.3565
564 0.00773069 681.041 3.6328 6.28547e-06 52.3222
565 0.00773697 681.146 3.63708 6.28547e-06 52.2881
566 0.00774326 681.251 3.64136 6.28547e-06 52.254
567 0.00774955 681.356 3.64564 6.28547e-06 52.22
568 0.00775583 681.46 3.64992 6.28547e-06 52.186
569 0.00776212 681.565 3.65421 6.28547e-06 52.1522
570 0.0077684 681.669 3.65849 6.28547e-06 52.1185
571 0.00777469 681.773 3.66278 6.28547e-06 52.0848
572 0.00778097 681.877 3.66706 6.28547e-06 52.0512
573 0.00778726 681.981 3.67135 6.28547e-06 52.0177
574 0.00779354 682.085 3.67564 6.28547e-06 51.9843
575 0.00779983 682.189 3.67992 6.28547e-06 51.951
576 0.00780612 682.293 3.68421 6.28547e-06 51.9178
577 0.0078124 682.396 3.6885 6.28547e-06 51.8846
578 0.00781869 682.5 3.69279 6.28547e-06 51.8516
579 0.00782497 682.603 3.69708 6.28547e-06 51.8186
580 0.00783126 682.707 3.70137 6.28547e-06 51.7857
581 0.00783754 682.81 3.70566 6.28547e-06 51.7529
582 0.00784383 682.913 3.70995 6.28547e-06 51.7202
583 0.00785011 683.016 3.71425 6.28547e-06 51.6875
584 0.0078564 683.119 3.71854 6.28547e-06 51.655
585 0.00786268 683.222 3.72283 6.28547e-06 51.6225
586 0.00786897 683.325 3.72713 6.28547e-06 51.5901
587 0.00787526 683.427 3.73142 6.28547e-06 51.5578
588 0.00788154 683.53 3.73572 6.28547e-06 51.5255
589 0.00788783 683.632 3.74002 6.28547e-06 51.4934
590 0.00789411 683.735 3.74431 6.28547e-06 51.4613
591 0.0079004 683.837 3.74861 6.28547e-06 51.4293
592 0.00790668 683.939 3.75291 6.28547e-06 51.3974
593 0.00791297 684.041 3.75721 6.28547e-06 51.3655
594 0.00791925 684.143 3.76151 6.28547e-06 51.3338
595 0.00792554 684.245 3.76581 6.28547e-06 51.3021
596 0.00793182 684.347 3.77011 6.28547e-06 51.2705
597 0.00793811 684.448 3.77441 6.28547e-06 51.2389
598 0.0079444 684.55 3.77872 6.28547e-06 51.2075
599 0.00795068 684.651 3.78302 6.28547e-06 51.1761
600 0.00795697 684.753 3.78732 6.28547e-06 51.1448
601 0.00796325 684.854 3.79163 6.28547e-06 51.1136
602 0.00796954 684.955 3.79593 6.28547e-06 51.0825
603 0.00797582 685.056 3.80024 6.28547e-06 51.0514
604 0.00798211 685.157 3.80454 6.28547e-06 51.0204
605 0.00798839 685.258 3.80885 6.28547e-06 50.9895
606 0.00799468 685.359 3.81316 6.28547e-06 50.9587
607 0.00800096 685.46 3.81747 6.28547e-06 50.9279
608 0.00800725 685.56 3.82177 6.28547e-06 50.8972
609 0.00801354 685.661 3.82608 6.28547e-06 50.8666
610 0.00801982 685.761 3.83039 6.28547e-06 50.836
611 0.00802611 685.862 3.8347 6.28547e-06 50.8056
612 0.00803239 685.962 3.83902 6.28547e-06 50.7752
613 0.00803868 686.062 3.84333 6.28547e-06 50.7449
614 0.00804496 686.162 3.84764 6.28547e-06 50.7146
615 0.00805125 686.262 3.85195 6.91402e-06 50.6844
616 0.00805816 686.372 3.8567 6.91402e-06 50.6513
617 0.00806508 686.482 3.86144 6.91402e-06 50.6183
618 0.00807199 686.592 3.86619 6.91402e-06 50.5854
619 0.0080789 686.701 3.87094 6.91402e-06 50.5525
620 0.00808582 686.811 3.87569 6.91402e-06 50.5198
621 0.00809273 686.92 3.88044 6.91402e-06 50.4871
622 0.00809965 687.029 3.88519 6.91402e-06 50.4545
623 0.00810656 687.138 3.88994 6.91402e-06 50.422
624 0.00811347 687.247 3.89469 6.91402e-06 50.3895
625 0.00812039 687.356 3.89944 6.91402e-06 50.3572
626 0.0081273 687.465 3.90419 6.91402e-06 50.325
627 0.00813422 687.574 3.90895 6.91402e-06 50.2928
628 0.00814113 687.682 3.9137 6.91402e-06 50.2607
629 0.00814804 687.791 3.91846 6.91402e-06 50.2287
630 0.00815496 687.899 3.92321 6.91402e-06 50.1968
631 0.00816187 688.007 3.92797 6.91402e-06 50.1649
632 0.00816879 688.116 3.93272 6.91402e-06 50.1332
633 0.0081757 688.224 3.93748 6.91402e-06 50.1015
634 0.00818261 688.332 3.94224 6.91402e-06 50.0699
635 0.00818953 688.439 3.947 6.91402e-06 50.0384
636 0.00819644 688.547 3.95176 6.91402e-06 50.0069
637 0.00820336 688.655 3.95652 6.91402e-06 49.9756
638 0.00821027 688.762 3.96128 6.91402e-06 49.9443
639 0.00821718 688.87 3.96605 6.91402e-06 49.9131
640 0.0082241 688.977 3.97081 6.91402e-06 49.882
641 0.00823101 689.084 3.97557 6.91402e-06 49.851
642 0.00823793 689.191 3.98034 6.91402e-06 49.82
643 0.00824484 689.298 3.9851 6.91402e-06 49.7891
644 0.00825175 689.405 3.98987 6.91402e-06 49.7583
645 0.00825867 689.512 3.99464 6.91402e-06 49.7276
646 0.00826558 689.619 3.9994 6.91402e-06 49.6969
647 0.0082725 689.725 4.00417 6.91402e-06 49.6664
648 0.00827941 689.832 4.00894 6.91402e-06 49.6359
649 0.00828633 689.938 4.01371 6.91402e-06 49.6055
650 0.00829324 690.045 4.01848 6.91402e-06 49.5751
651 0.00830015 690.151 4.02325 6.91402e-06 49.5449
652 0.00830707 690.257 4.02803 6.91402e-06 49.5147
653 0.00831398 690.363 4.0328 6.91402e-06 49.4845
654 0.0083209 690.469 4.03757 6.91402e-06 49.4545
655 0.00832781 690.575 4.04235 6.91402e-06 49.4245
656 0.00833472 690.68 4.04712 6.91402e-06 49.3946
657 0.00834164 690.786 4.0519 6.91402e-06 49.3648
658 0.00834855 690.891 4.05667 6.91402e-06 49.3351
659 0.00835547 690.997 4.06145 6.91402e-06 49.3054
660 0.00836238 691.102 4.06623 6.91402e-06 49.2758
661 0.00836929 691.207 4.07101 6.91402e-06 49.2463
662 0.00837621 691.312 4.07579 6.91402e-06 49.2168
663 0.00838312 691.417 4.08057 6.91402e-06 49.1874
664 0.00839004 691.522 4.08535 6.91402e-06 49.1581
665 0.00839695 691.627 4.09013 6.91402e-06 49.1289
666 0.00840386 691.732 4.09491 6.91402e-06 49.0997
667 0.00841078 691.836 4.09969 6.91402e-06 49.0706
668 0.00841769 691.941 4.10448 6.91402e-06 49.0416
669 0.00842461 692.045 4.10926 6.91402e-06 49.0126
670 0.00843152 692.15 4.11405 6.91402e-06 48.9837
671 0.00843843 692.254 4.11883 6.91402e-06 48.9549
672 0.00844535 692.358 4.12362 6.91402e-06 48.9262
673 0.00845226 692.462 4.12841 6.91402e-06 48.8975
674 0.00845918 692.566 4.1332 6.91402e-06 48.8689
675 0.00846609 692.67 4.13798 6.91402e-06 48.8404
676 0.008473 692.773 4.14277 6.91402e-06 48.8119
677 0.00847992 692.877 4.14756 6.91402e-06 48.7835
678 0.00848683 692.981 4.15236 6.91402e-06 48.7551
679 0.00849375 693.084 4.15715 6.91402e-06 48.7269
680 0.00850066 693.187 4.16194 6.91402e-06 48.6987
681 0.00850757 693.291 4.16673 6.91402e-06 48.6705
682 0.00851449 693.394 4.17153 6.91402e-06 48.6425
683 0.0085214 693.497 4.17632 6.91402e-06 48.6145
684 0.00852832 693.6 4.18112 6.91402e-06 48.5865
685 0.00853523 693.703 4.18591 6.91402e-06 48.5587
686 0.00854214 693.805 4.19071 6.91402e-06 48.5309
687 0.00854906 693.908 4.19551 6.91402e-06 48.5031
688 0.00855597 694.011 4.2003 6.91402e-06 48.4755
689 0.00856289 694.113 4.2051 6.91402e-06 48.4478
690 0.0085698 694.216 4.2099 6.91402e-06 48.4203
691 0.00857671 694.318 4.2147 6.91402e-06 48.3928
692 0.00858363 694.42 4.2195 6.91402e-06 48.3654
693 0.00859054 694.522 4.2243 6.91402e-06 48.3381
694 0.00859746 694.624 4.22911 6.91402e-06 48.3108
695 0.00860437 694.726 4.23391 6.91402e-06 48.2836
696 0.00861128 694.828 4.23871 6.91402e-06 48.2564
697 0.0086182 694.93 4.24352 6.91402e-06 48.2293
698 0.00862511 695.032 4.24832 6.91402e-06 48.2023
699 0.00863203 695.133 4.25313 6.91402e-06 48.1753
700 0.00863894 695.235 4.25794 6.91402e-06 48.1484
701 0.00864585 695.336 4.26274 6.91402e-06 48.1215
702 0.00865277 695.438 4.26755 6.91402e-06 48.0948
703 0.00865968 695.539 4.27236 6.91402e-06 48.068
704 0.0086666 695.64 4.27717 6.91402e-06 48.0414
705 0.00867351 695.741 4.28198 6.91402e-06 48.0148
706 0.00868042 695.842 4.28679 6.91402e-06 47.9882
707 0.00868734 695.943 4.2916 6.91402e-06 47.9618
708 0.00869425 696.044 4.29641 6.91402e-06 47.9353
709 0.00870117 696.144 4.30123 6.91402e-06 47.909
710 0.00870808 696.245 4.30604 6.91402e-06 47.8827
711 0.00871499 696.345 4.31085 6.91402e-06 47.8564
712 0.00872191 696.446 4.31567 6.91402e-06 47.8303
713 0.00872882 696.546 4.32048 6.91402e-06 47.8041
714 0.00873574 696.646 4.3253 6.91402e-06 47.7781
715 0.00874265 696.747 4.33012 6.91402e-06 47.7521
716 0.00874956 696.847 4.33493 6.91402e-06 47.7261
717 0.00875648 696.947 4.33975 7.60542e-06 47.7003
718 0.00876408 697.057 4.34505 7.60542e-06 47.6719
719 0.00877169 697.166 4.35036 7.60542e-06 47.6435
720 0.00877929 697.276 4.35566 7.60542e-06 47.6153
721 0.0087869 697.386 4.36096 7.60542e-06 47.5871
722 0.00879451 697.495 4.36627 7.60542e-06 47.5589
723 0.00880211 697.604 4.37157 7.60542e-06 47.5309
724 0.00880972 697.714 4.37688 7.60542e-06 47.5029
725 0.00881732 697.823 4.38218 7.60542e-06 47.475
726 0.00882493 697.932 4.38749 7.60542e-06 47.4471
727 0.00883253 698.041 4.3928 7.60542e-06 47.4193
728 0.00884014 698.15 4.39811 7.60542e-06 47.3916
729 0.00884774 698.258 4.40342 7.60542e-06 47.364
730 0.00885535 698.367 4.40873 7.60542e-06 47.3364
731 0.00886295 698.476 4.41404 7.60542e-06 47.3089
732 0.00887056 698.584 4.41936 7.60542e-06 47.2814
733 0.00887816 698.692 4.42467 7.60542e-06 47.254
734 0.00888577 698.801 4.42998 7.60542e-06 47.2267
735 0.00889338 698.909 4.4353 7.60542e-06 47.1995
736 0.00890098 699.017 4.44061 7.60542e-06 47.1723
737 0.00890859 699.125 4.44593 7.60542e-06 47.1451
738 0.00891619 699.233 4.45125 7.60542e-06 47.1181
739 0.0089238 699.34 4.45657 7.60542e-06 47.0911
740 0.0089314 699.448 4.46189 7.60542e-06 47.0642
741 0.00893901 699.555 4.46721 7.60542e-06 47.0373
742 0.00894661 699.663 4.47253 7.60542e-06 47.0105
743 0.00895422 699.77 4.47785 7.60542e-06 46.9838
744 0.00896182 699.877 4.48317 7.60542e-06 46.9571
745 0.00896943 699.985 4.48849 7.60542e-06 46.9305
746 0.00897704 700.092 4.49382 7.60542e-06 46.9039
747 0.00898464 700.199 4.49914 7.60542e-06 46.8775
748 0.00899225 700.305 4.50447 7.60542e-06 46.851
749 0.00899985 700.412 4.5098 7.60542e-06 46.8247
750 0.00900746 700.519 4.51512 7.60542e-06 46.7984
751 0.00901506 700.625 4.52045 7.60542e-06 46.7721
752 0.00902267 700.732 4.52578 7.60542e-06 46.746
753 0.00903027 700.838 4.53111 7.60542e-06 46.7199
754 0.00903788 700.944 4.53644 7.60542e-06 46.6938
755 0.00904548 701.05 4.54177 7.60542e-06 46.6678
756 0.00905309 701.157 4.5471 7.60542e-06 46.6419
757 0.00906069 701.263 4.55244 7.60542e-06 46.616
758 0.0090683 701.368 4.55777 7.60542e-06 46.5902
759 0.00907591 701.474 4.56311 7.60542e-06 46.5645
760 0.00908351 701.58 4.56844 7.60542e-06 46.5388
761 0.00909112 701.685 4.57378 7.60542e-06 46.5131
762 0.00909872 701.791 4.57911 7.60542e-06 46.4876
763 0.00910633 701.896 4.58445 7.60542e-06 46.462
764 0.00911393 702.002 4.58979 7.60542e-06 46.4366
765 0.00912154 702.107 4.59513 7.60542e-06 46.4112
766 0.00912914 702.212 4.60047 7.60542e-06 46.3858
767 0.00913675 702.317 4.60581 7.60542e-06 46.3606
768 0.00914435 702.422 4.61115 7.60542e-06 46.3353
769 0.00915196 702.527 4.6165 7.60542e-06 46.3102
770 0.00915957 702.631 4.62184 7.60542e-06 46.2851
771 0.00916717 702.736 4.62718 7.60542e-06 46.26
772 0.00917478 702.84 4.63253 7.60542e-06 46.235
773 0.00918238 702.945 4.63787 7.60542e-06 46.2101
774 0.00918999 703.049 4.64322 7.60542e-06 46.1852
775 0.00919759 703.154 4.64857 7.60542e-06 46.1604
776 0.0092052 703.258 4.65392 7.60542e-06 46.1356
777 0.0092128 703.362 4.65926 7.60542e-06 46.1109
778 0.00922041 703.466 4.66461 7.60542e-06 46.0862
779 0.00922801 703.57 4.66997 7.60542e-06 46.0616
780 0.00923562 703.673 4.67532 7.60542e-06 46.0371
781 0.00924322 703.777 4.68067 7.60542e-06 46.0126
782 0.00925083 703.881 4.68602 7.60542e-06 45.9881
783 0.00925844 703.984 4.69138 7.60542e-06 45.9637
784 0.00926604 704.088 4.69673 7.60542e-06 45.9394
785 0.00927365 704.191 4.70208 7.60542e-06 45.9151
786 0.00928125 704.294 4.70744 7.60542e-06 45.8909
787 0.00928886 704.397 4.7128 7.60542e-06 45.8667
788 0.00929646 704.501 4.71816 7.60542e-06 45.8426
789 0.00930407 704.604 4.72351 7.60542e-06 45.8185
790 0.00931167 704.706 4.72887 7.60542e-06 45.7945
791 0.00931928 704.809 4.73423 7.60542e-06 45.7706
792 0.00932688 704.912 4.73959 7.60542e-06 45.7467
793 0.00933449 705.015 4.74496 7.60542e-06 45.7228
794 0.0093421 705.117 4.75032 7.60542e-06 45.699
795 0.0093497 705.22 4.75568 7.60542e-06 45.6753
796 0.00935731 705.322 4.76104 7.60542e-06 45.6516
797 0.00936491 705.424 4.76641 7.60542e-06 45.6279
798 0.00937252 705.526 4.77177 7.60542e-06 45.6043
799 0.00938012 705.628 4.77714 7.60542e-06 45.5808
800 0.00938773 705.73 4.78251 7.60542e-06 45.5573
801 0.00939533 705.832 4.78788 7.60542e-06 45.5339
802 0.00940294 705.934 4.79324 7.60542e-06 45.5105
803 0.00941054 706.036 4.79861 7.60542e-06 45.4871
804 0.00941815 706.138 4.80398 7.60542e-06 45.4638
805 0.00942576 706.239 4.80935 7.60542e-06 45.4406
806 0.00943336 706.341 4.81473 7.60542e-06 45.4174
807 0.00944097 706.442 4.8201 7.60542e-06 45.3943
808 0.00944857 706.543 4.82547 7.60542e-06 45.3712
809 0.00945618 706.645 4.83085 7.60542e-06 45.3481
810 0.00946378 706.746 4.83622 7.60542e-06 45.3251
811 0.00947139 706.847 4.8416 7.60542e-06 45.3022
812 0.00947899 706.948 4.84697 7.60542e-06 45.2793
813 0.0094866 707.049 4.85235 7.60542e-06 45.2565
814 0.0094942 707.149 4.85773 7.60542e-06 45.2337
815 0.00950181 707.25 4.86311 7.60542e-06 45.2109
816 0.00950941 707.351 4.86848 7.60542e-06 45.1882
817 0.00951702 707.451 4.87386 7.60542e-06 45.1656
818 0.00952463 707.552 4.87925 7.60542e-06 45.143
819 0.00953223 707.652 4.88463 7.60542e-06 45.1204
820 0.00953984 707.752 4.89001 7.60542e-06 45.0979
821 0.00954744 707.853 4.89539 7.60542e-06 45.0754
822 0.00955505 707.953 4.90078 7.60542e-06 45.053
823 0.00956265 708.053 4.90616 7.60542e-06 45.0306
824 0.00957026 708.153 4.91155 8.36596e-06 45.0083
825 0.00957862 708.262 4.91747 8.36596e-06 44.9838
826 0.00958699 708.372 4.9234 8.36596e-06 44.9594
827 0.00959536 708.482 4.92932 8.36596e-06 44.935
828 0.00960372 708.591 4.93525 8.36596e-06 44.9106
829 0.00961209 708.701 4.94118 8.36596e-06 44.8864
830 0.00962045 708.81 4.94711 8.36596e-06 44.8621
831 0.00962882 708.919 4.95304 8.36596e-06 44.838
832 0.00963719 709.028 4.95897 8.36596e-06 44.8139
833 0.00964555 709.138 4.9649 8.36596e-06 44.7898
834 0.00965392 709.246 4.97084 8.36596e-06 44.7658
835 0.00966228 709.355 4.97677 8.36596e-06 44.7419
836 0.00967065 709.464 4.98271 8.36596e-06 44.718
837 0.00967902 709.573 4.98864 8.36596e-06 44.6941
838 0.00968738 709.681 4.99458 8.36596e-06 44.6703
839 0.00969575 709.79 5.00052 8.36596e-06 44.6466
840 0.00970411 709.898 5.00645 8.36596e-06 44.6229
841 0.00971248 710.006 5.01239 8.36596e-06 44.5993
842 0.00972085 710.114 5.01833 8.36596e-06 44.5757
843 0.00972921 710.222 5.02427 8.36596e-06 44.5522
844 0.00973758 710.33 5.03022 8.36596e-06 44.5287
845 0.00974594 710.438 5.03616 8.36596e-06 44.5053
846 0.00975431 710.546 5.0421 8.36596e-06 44.4819
847 0.00976268 710.654 5.04805 8.36596e-06 44.4586
848 0.00977104 710.761 5.05399 8.36596e-06 44.4353
849 0.00977941 710.869 5.05994 8.36596e-06 44.4121
850 0.00978777 710.976 5.06589 8.36596e-06 44.389
851 0.00979614 711.083 5.07184 8.36596e-06 44.3659
852 0.0098045 711.191 5.07779 8.36596e-06 44.3428
853 0.00981287 711.298 5.08374 8.36596e-06 44.3198
854 0.00982124 711.405 5.08969 8.36596e-06 44.2968
855 0.0098296 711.512 5.09564 8.36596e-06 44.2739
856 0.00983797 711.618 5.10159 8.36596e-06 44.2511
857 0.00984633 711.725 5.10755 8.36596e-06 44.2282
858 0.0098547 711.832 5.1135 8.36596e-06 44.2055
859 0.00986307 711.938 5.11946 8.36596e-06 44.1828
860 0.00987143 712.045 5.12541 8.36596e-06 44.1601
861 0.0098798 712.151 5.13137 8.36596e-06 44.1375
862 0.00988816 712.257 5.13733 8.36596e-06 44.1149
863 0.00989653 712.363 5.14329 8.36596e-06 44.0924
864 0.0099049 712.469 5.14925 8.36596e-06 44.0699
865 0.00991326 712.575 5.15521 8.36596e-06 44.0475
866 0.00992163 712.681 5.16117 8.36596e-06 44.0252
867 0.00992999 712.787 5.16713 8.36596e-06 44.0028
868 0.00993836 712.893 5.1731 8.36596e-06 43.9805
869 0.00994673 712.998 5.17906 8.36596e-06 43.9583
870 0.00995509 713.104 5.18503 8.36596e-06 43.9361
871 0.00996346 713.209 5.19099 8.36596e-06 43.914
872 0.00997182 713.315 5.19696 8.36596e-06 43.8919
873 0.00998019 713.42 5.20293 8.36596e-06 43.8699
874 0.00998856 713.525 5.2089 8.36596e-06 43.8479
875 0.00999692 713.63 5.21487 8.36596e-06 43.8259
876 0.0100053 713.735 5.22084 8.36596e-06 43.804
877 0.0100137 713.84 5.22681 8.36596e-06 43.7822
878 0.010022 713.945 5.23278 8.36596e-06 43.7604
879 0.0100304 714.049 5.23876 8.36596e-06 43.7386
880 0.0100388 714.154 5.24473 8.36596e-06 43.7169
881 0.0100471 714.258 5.2507 8.36596e-06 43.6952
882 0.0100555 714.363 5.25668 8.36596e-06 43.6736
883 0.0100638 714.467 5.26266 8.36596e-06 43.652
884 0.0100722 714.571 5.26863 8.36596e-06 43.6305
885 0.0100806 714.675 5.27461 8.36596e-06 43.609
886 0.0100889 714.78 5.28059 8.36596e-06 43.5875
887 0.0100973 714.883 5.28657 8.36596e-06 43.5661
888 0.0101057 714.987 5.29255 8.36596e-06 43.5448
889 0.010114 715.091 5.29854 8.36596e-06 43.5234
890 0.0101224 715.195 5.30452 8.36596e-06 43.5022
891 0.0101308 715.298 5.3105 8.36596e-06 43.4809
892 0.0101391 715.402 5.31649 8.36596e-06 43.4598
893 0.0101475 715.505 5.32247 8.36596e-06 43.4386
894 0.0101559 715.609 5.32846 8.36596e-06 43.4175
895 0.0101642 715.712 5.33445 8.36596e-06 43.3965
896 0.0101726 715.815 5.34043 8.36596e-06 43.3755
897 0.010181 715.918 5.34642 8.36596e-06 43.3545
898 0.0101893 716.021 5.35241 8.36596e-06 43.3336
899 0.0101977 716.124 5.3584 8.36596e-06 43.3127
900 0.0102061 716.227 5.36439 8.36596e-06 43.2918
901 0.0102144 716.33 5.37039 8.36596e-06 43.271
902 0.0102228 716.432 5.37638 8.36596e-06 43.2503
903 0.0102312 716.535 5.38237 8.36596e-06 43.2296
904 0.0102395 716.637 5.38837 8.36596e-06 43.2089
905 0.0102479 716.74 5.39437 8.36596e-06 43.1883
906 0.0102563 716.842 5.40036 8.36596e-06 43.1677
907 0.0102646 716.944 5.40636 8.36596e-06 43.1471
908 0.010273 717.046 5.41236 8.36596e-06 43.1266
909 0.0102814 717.148 5.41836 8.36596e-06 43.1061
910 0.0102897 717.25 5.42436 8.36596e-06 43.0857
911 0.0102981 717.352 5.43036 8.36596e-06 43.0653
912 0.0103065 717.454 5.43636 8.36596e-06 43.045
913 0.0103148 717.556 5.44236 8.36596e-06 43.0247
914 0.0103232 717.657 5.44837 8.36596e-06 43.0044
915 0.0103316 717.759 5.45437 8.36596e-06 42.9842
916 0.0103399 717.86 5.46038 8.36596e-06 42.964
917 0.0103483 717.962 5.46638 8.36596e-06 42.9439
918 0.0103567 718.063 5.47239 8.36596e-06 42.9238
919 0.010365 718.164 5.4784 8.36596e-06 42.9037
920 0.0103734 718.265 5.4844 8.36596e-06 42.8837
921 0.0103818 718.366 5.49041 8.36596e-06 42.8637
922 0.0103901 718.467 5.49642 8.36596e-06 42.8437
923 0.0103985 718.568 5.50244 8.36596e-06 42.8238
924 0.0104069 718.669 5.50845 8.36596e-06 42.804
925 0.0104152 718.77 5.51446 8.36596e-06 42.7841
926 0.0104236 718.87 5.52047 8.36596e-06 42.7643
927 0.010432 718.971 5.52649 8.36596e-06 42.7446
928 0.0104403 719.071 5.5325 8.36596e-06 42.7249
929 0.0104487 719.172 5.53852 8.36596e-06 42.7052
930 0.010457 719.272 5.54454 8.36596e-06 42.6855
931 0.0104654 719.372 5.55055 8.36596e-06 42.6659
932 0.0104738 719.472 5.55657 8.36596e-06 42.6464
933 0.0104821 719.572 5.56259 8.36596e-06 42.6268
934 0.0104905 719.672 5.56861 9.20256e-06 42.6074
935 0.0104997 719.782 5.57524 9.20256e-06 42.586
936 0.0105089 719.892 5.58186 9.20256e-06 42.5646
937 0.0105181 720.002 5.58849 9.20256e-06 42.5433
938 0.0105273 720.111 5.59511 9.20256e-06 42.522
939 0.0105365 720.221 5.60174 9.20256e-06 42.5008
940 0.0105457 720.33 5.60837 9.20256e-06 42.4797
941 0.0105549 720.439 5.615 9.20256e-06 42.4585
942 0.0105641 720.549 5.62163 9.20256e-06 42.4375
943 0.0105733 720.658 5.62826 9.20256e-06 42.4164
944 0.0105825 720.767 5.63489 9.20256e-06 42.3954
945 0.0105917 720.875 5.64152 9.20256e-06 42.3745
946 0.0106009 720.984 5.64816 9.20256e-06 42.3536
947 0.0106101 721.093 5.65479 9.20256e-06 42.3327
948 0.0106193 721.202 5.66143 9.20256e-06 42.3119
949 0.0106286 721.31 5.66807 9.20256e-06 42.2911
950 0.0106378 721.419 5.67471 9.20256e-06 42.2704
951 0.010647 721.527 5.68135 9.20256e-06 42.2497
952 0.0106562 721.635 5.68799 9.20256e-06 42.229
953 0.0106654 721.743 5.69463 9.20256e-06 42.2084
954 0.0106746 721.851 5.70127 9.20256e-06 42.1878
955 0.0106838 721.959 5.70791 9.20256e-06 42.1673
956 0.010693 722.067 5.71456 9.20256e-06 42.1468
957 0.0107022 722.175 5.7212 9.20256e-06 42.1264
958 0.0107114 722.282 5.72785 9.20256e-06 42.106
959 0.0107206 722.39 5.7345 9.20256e-06 42.0856
960 0.0107298 722.497 5.74115 9.20256e-06 42.0653
961 0.010739 722.605 5.74779 9.20256e-06 42.045
962 0.0107482 722.712 5.75444 9.20256e-06 42.0248
963 0.0107574 722.819 5.7611 9.20256e-06 42.0046
964 0.0107666 722.926 5.76775 9.20256e-06 41.9844
965 0.0107758 723.033 5.7744 9.20256e-06 41.9643
966 0.010785 723.14 5.78106 9.20256e-06 41.9442
967 0.0107942 723.247 5.78771 9.20256e-06 41.9242
968 0.0108034 723.354 5.79437 9.20256e-06 41.9042
969 0.0108126 723.46 5.80102 9.20256e-06 41.8843
970 0.0108218 723.567 5.80768 9.20256e-06 41.8643
971 0.010831 723.673 5.81434 9.20256e-06 41.8445
972 0.0108402 723.78 5.821 9.20256e-06 41.8246
973 0.0108494 723.886 5.82766 9.20256e-06 41.8048
974 0.0108586 723.992 5.83433 9.20256e-06 41.7851
975 0.0108678 724.098 5.84099 9.20256e-06 41.7653
976 0.010877 724.204 5.84765 9.20256e-06 41.7457
977 0.0108862 724.31 5.85432 9.20256e-06 41.726
978 0.0108954 724.416 5.86098 9.20256e-06 41.7064
979 0.0109046 724.522 5.86765 9.20256e-06 41.6869
980 0.0109138 724.627 5.87432 9.20256e-06 41.6673
981 0.010923 724.733 5.88099 9.20256e-06 41.6478
982 0.0109322 724.838 5.88766 9.20256e-06 41.6284
983 0.0109414 724.944 5.89433 9.20256e-06 41.609
984 0.0109506 725.049 5.901 9.20256e-06 41.5896
985 0.0109598 725.154 5.90767 9.20256e-06 41.5703
986 0.010969 725.259 5.91435 9.20256e-06 41.551
987 0.0109782 725.364 5.92102 9.20256e-06 41.5317
988 0.0109875 725.469 5.9277 9.20256e-06 41.5125
989 0.0109967 725.574 5.93437 9.20256e-06 41.4933
990 0.0110059 725.679 5.94105 9.20256e-06 41.4741
991 0.0110151 725.784 5.94773 9.20256e-06 41.455
992 0.0110243 725.888 5.95441 9.20256e-06 41.4359
993 0.0110335 725.993 5.96109 9.20256e-06 41.4169
994 0.0110427 726.097 5.96777 9.20256e-06 41.3979
995 0.0110519 726.201 5.97445 9.20256e-06 41.3789
996 0.0110611 726.306 5.98114 9.20256e-06 41.36
997 0.0110703 726.41 5.98782 9.20256e-06 41.3411
998 0.0110795 726.514 5.99451 9.20256e-06 41.3222
999 0.0110887 726.618 6.00119 9.20256e-06 41.3034
1000 0.0110979 726.722 6.00788 9.20256e-06 41.2846
1001 0.0111071 726.825 6.01457 9.20256e-06 41.2659
1002 0.0111163 726.929 6.02126 9.20256e-06 41.2471
1003 0.0111255 727.033 6.02795 9.20256e-06 41.2284
1004 0.0111347 727.136 6.03464 9.20256e-06 41.2098
1005 0.0111439 727.24 6.04133 9.20256e-06 41.1912
1006 0.0111531 727.343 6.04802 9.20256e-06 41.1726
1007 0.0111623 727.446 6.05472 9.20256e-06 41.1541
1008 0.0111715 727.549 6.06141 9.20256e-06 41.1355
1009 0.0111807 727.652 6.06811 9.20256e-06 41.1171
1010 0.0111899 727.755 6.0748 9.20256e-06 41.0986
1011 0.0111991 727.858 6.0815 9.20256e-06 41.0802
1012 0.0112083 727.961 6.0882 9.20256e-06 41.0618
1013 0.0112175 728.064 6.0949 9.20256e-06 41.0435
1014 0.0112267 728.167 6.1016 9.20256e-06 41.0252
1015 0.0112359 728.269 6.1083 9.20256e-06 41.0069
1016 0.0112451 728.372 6.115 9.20256e-06 40.9887
1017 0.0112543 728.474 6.12171 9.20256e-06 40.9705
1018 0.0112635 728.576 6.12841 9.20256e-06 40.9523
1019 0.0112727 728.679 6.13512 9.20256e-06 40.9342
1020 0.0112819 728.781 6.14182 9.20256e-06 40.9161
1021 0.0112911 728.883 6.14853 9.20256e-06 40.898
1022 0.0113003 728.985 6.15524 9.20256e-06 40.88
1023 0.0113095 729.087 6.16195 9.20256e-06 40.862
1024 0.0113187 729.189 6.16866 9.20256e-06 40.844
1025 0.0113279 729.29 6.17537 9.20256e-06 40.826
1026 0.0113371 729.392 6.18208 9.20256e-06 40.8081
1027 0.0113464 729.494 6.18879 9.20256e-06 40.7903
1028 0.0113556 729.595 6.19551 9.20256e-06 40.7724
1029 0.0113648 729.697 6.20222 9.20256e-06 40.7546
1030 0.011374 729.798 6.20894 9.20256e-06 40.7368
1031 0.0113832 729.899 6.21565 9.20256e-06 40.7191
1032 0.0113924 730 6.22237 9.20256e-06 40.7014
1033 0.0114016 730.101 6.22909 9.20256e-06 40.6837
1034 0.0114108 730.202 6.23581 9.20256e-06 40.666
1035 0.01142 730.303 6.24253 9.20256e-06 40.6484
1036 0.0114292 730.404 6.24925 9.20256e-06 40.6308
1037 0.0114384 730.505 6.25597 9.20256e-06 40.6133
1038 0.0114476 730.606 6.2627 9.20256e-06 40.5957
1039 0.0114568 730.706 6.26942 9.20256e-06 40.5782
1040 0.011466 730.807 6.27614 9.20256e-06 40.5608
1041 0.0114752 730.907 6.28287 9.20256e-06 40.5433
1042 0.0114844 731.008 6.2896 9.20256e-06 40.5259
1043 0.0114936 731.108 6.29632 9.20256e-06 40.5086
1044 0.0115028 731.208 6.30305 9.20256e-06 40.4912
1045 0.011512 731.308 6.30978 9.20256e-06 40.4739
1046 0.0115212 731.408 6.31651 9.20256e-06 40.4566
1047 0.0115304 731.508 6.32324 1.01228e-05 40.4394
1048 0.0115405 731.618 6.33065 1.01228e-05 40.4204
1049 0.0115506 731.728 6.33806 1.01228e-05 40.4015
1050 0.0115608 731.838 6.34546 1.01228e-05 40.3827
1051 0.0115709 731.947 6.35287 1.01228e-05 40.3638
1052 0.011581 732.057 6.36028 1.01228e-05 40.345
1053 0.0115911 732.166 6.36769 1.01228e-05 40.3263
1054 0.0116013 732.275 6.37511 1.01228e-05 40.3075
1055 0.0116114 732.384 6.38252 1.01228e-05 40.2889
1056 0.0116215 732.494 6.38993 1.01228e-05 40.2702
1057 0.0116316 732.603 6.39735 1.01228e-05 40.2516
1058 0.0116418 732.711 6.40476 1.01228e-05 40.233
1059 0.0116519 732.82 6.41218 1.01228e-05 40.2145
1060 0.011662 732.929 6.4196 1.01228e-05 40.1959
1061 0.0116721 733.038 6.42702 1.01228e-05 40.1775
1062 0.0116822 733.146 6.43444 1.01228e-05 40.159
1063 0.0116924 733.255 6.44186 1.01228e-05 40.1406
1064 0.0117025 733.363 6.44929 1.01228e-05 40.1222
1065 0.0117126 733.471 6.45671 1.01228e-05 40.1039
1066 0.0117227 733.579 6.46414 1.01228e-05 40.0856
1067 0.0117329 733.687 6.47156 1.01228e-05 40.0673
1068 0.011743 733.795 6.47899 1.01228e-05 40.0491
1069 0.0117531 733.903 6.48642 1.01228e-05 40.0309
1070 0.0117632 734.011 6.49385 1.01228e-05 40.0127
1071 0.0117733 734.119 6.50128 1.01228e-05 39.9946
1072 0.0117835 734.226 6.50871 1.01228e-05 39.9765
1073 0.0117936 734.334 6.51614 1.01228e-05 39.9584
1074 0.0118037 734.441 6.52358 1.01228e-05 39.9403
1075 0.0118138 734.548 6.53101 1.01228e-05 39.9223
1076 0.011824 734.656 6.53845 1.01228e-05 39.9044
1077 0.0118341 734.763 6.54589 1.01228e-05 39.8864
1078 0.0118442 734.87 6.55333 1.01228e-05 39.8685
1079 0.0118543 734.977 6.56077 1.01228e-05 39.8507
1080 0.0118645 735.084 6.56821 1.01228e-05 39.8328
1081 0.0118746 735.191 6.57565 1.01228e-05 39.815
1082 0.0118847 735.297 6.58309 1.01228e-05 39.7972
1083 0.0118948 735.404 6.59053 1.01228e-05 39.7795
1084 0.0119049 735.51 6.59798 1.01228e-05 39.7618
1085 0.0119151 735.617 6.60543 1.01228e-05 39.7441
1086 0.0119252 735.723 6.61287 1.01228e-05 39.7265
1087 0.0119353 735.829 6.62032 1.01228e-05 39.7088
1088 0.0119454 735.935 6.62777 1.01228e-05 39.6913
1089 0.0119556 736.041 6.63522 1.01228e-05 39.6737
1090 0.0119657 736.147 6.64267 1.01228e-05 39.6562
1091 0.0119758 736.253 6.65012 1.01228e-05 39.6387
1092 0.0119859 736.359 6.65758 1.01228e-05 39.6212
1093 0.0119961 736.465 6.66503 1.01228e-05 39.6038
1094 0.0120062 736.57 6.67249 1.01228e-05 39.5864
1095 0.0120163 736.676 6.67994 1.01228e-05 39.569
1096 0.0120264 736.781 6.6874 1.01228e-05 39.5517
1097 0.0120365 736.887 6.69486 1.01228e-05 39.5344
1098 0.0120467 736.992 6.70232 1.01228e-05 39.5171
1099 0.0120568 737.097 6.70978 1.01228e-05 39.4999
1100 0.0120669 737.202 6.71724 1.01228e-05 39.4827
1101 0.012077 737.307 6.72471 1.01228e-05 39.4655
1102 0.0120872 737.412 6.73217 1.01228e-05 39.4483
1103 0.0120973 737.517 6.73964 1.01228e-05 39.4312
1104 0.0121074 737.622 6.7471 1.01228e-05 39.4141
1105 0.0121175 737.726 6.75457 1.01228e-05 39.3971
1106 0.0121276 737.831 6.76204 1.01228e-05 39.38
1107 0.0121378 737.935 6.76951 1.01228e-05 39.363
1108 0.0121479 738.04 6.77698 1.01228e-05 39.346
1109 0.012158 738.144 6.78445 1.01228e-05 39.3291
1110 0.0121681 738.248 6.79192 1.01228e-05 39.3122
1111 0.0121783 738.352 6.7994 1.01228e-05 39.2953
1112 0.0121884 738.456 6.80687 1.01228e-05 39.2784
1113 0.0121985 738.56 6.81435 1.01228e-05 39.2616
1114 0.0122086 738.664 6.82182 1.01228e-05 39.2448
1115 0.0122188 738.768 6.8293 1.01228e-05 39.228
1116 0.0122289 738.872 6.83678 1.01228e-05 39.2113
1117 0.012239 738.975 6.84426 1.01228e-05 39.1946
1118 0.0122491 739.079 6.85174 1.01228e-05 39.1779
1119 0.0122592 739.182 6.85922 1.01228e-05 39.1612
1120 0.0122694 739.285 6.86671 1.01228e-05 39.1446
1121 0.0122795 739.389 6.87419 1.01228e-05 39.128
1122 0.0122896 739.492 6.88168 1.01228e-05 39.1114
1123 0.0122997 739.595 6.88916 1.01228e-05 39.0949
1124 0.0123099 739.698 6.89665 1.01228e-05 39.0784
1125 0.01232 739.801 6.90414 1.01228e-05 39.0619
1126 0.0123301 739.904 6.91163 1.01228e-05 39.0454
1127 0.0123402 740.007 6.91912 1.01228e-05 39.029
1128 0.0123504 740.109 6.92661 1.01228e-05 39.0126
1129 0.0123605 740.212 6.9341 1.01228e-05 38.9962
1130 0.0123706 740.314 6.94159 1.01228e-05 38.9799
1131 0.0123807 740.417 6.94909 1.01228e-05 38.9636
1132 0.0123908 740.519 6.95658 1.01228e-05 38.9473
1133 0.012401 740.621 6.96408 1.01228e-05 38.931
1134 0.0124111 740.724 6.97158 1.01228e-05 38.9148
1135 0.0124212 740.826 6.97908 1.01228e-05 38.8985
1136 0.0124313 740.928 6.98658 1.01228e-05 38.8824
1137 0.0124415 741.03 6.99408 1.01228e-05 38.8662
1138 0.0124516 741.131 7.00158 1.01228e-05 38.8501
1139 0.0124617 741.233 7.00908 1.01228e-05 38.834
1140 0.0124718 741.335 7.01659 1.01228e-05 38.8179
1141 0.0124819 741.437 7.02409 1.01228e-05 38.8018
1142 0.0124921 741.538 7.0316 1.01228e-05 38.7858
1143 0.0125022 741.639 7.0391 1.01228e-05 38.7698
1144 0.0125123 741.741 7.04661 1.01228e-05 38.7538
1145 0.0125224 741.842 7.05412 1.01228e-05 38.7379
1146 0.0125326 741.943 7.06163 1.01228e-05 38.7219
1147 0.0125427 742.044 7.06914 1.01228e-05 38.7061
1148 0.0125528 742.145 7.07665 1.01228e-05 38.6902
1149 0.0125629 742.246 7.08417 1.01228e-05 38.6743
1150 0.0125731 742.347 7.09168 1.01228e-05 38.6585
1151 0.0125832 742.448 7.0992 1.01228e-05 38.6427
1152 0.0125933 742.549 7.10671 1.01228e-05 38.627
1153 0.0126034 742.649 7.11423 1.01228e-05 38.6112
1154 0.0126135 742.75 7.12175 1.01228e-05 38.5955
1155 0.0126237 742.85 7.12927 1.01228e-05 38.5798
1156 0.0126338 742.951 7.13679 1.01228e-05 38.5641
1157 0.0126439 743.051 7.14431 1.01228e-05 38.5485
1158 0.012654 743.151 7.15183 1.01228e-05 38.5329
1159 0.0126642 743.251 7.15936 1.01228e-05 38.5173
1160 0.0126743 743.352 7.16688 1.01228e-05 38.5017
1161 0.0126844 743.451 7.1744 1.11351e-05 38.4862
1162 0.0126955 743.561 7.18268 1.11351e-05 38.4691
1163 0.0127067 743.671 7.19096 1.11351e-05 38.4521
1164 0.0127178 743.781 7.19925 1.11351e-05 38.4351
1165 0.0127289 743.891 7.20753 1.11351e-05 38.4181
1166 0.0127401 744 7.21581 1.11351e-05 38.4011
1167 0.0127512 744.109 7.2241 1.11351e-05 38.3842
1168 0.0127623 744.219 7.23238 1.11351e-05 38.3673
1169 0.0127735 744.328 7.24067 1.11351e-05 38.3505
1170 0.0127846 744.437 7.24896 1.11351e-05 38.3336
1171 0.0127958 744.546 7.25725 1.11351e-05 38.3168
1172 0.0128069 744.655 7.26554 1.11351e-05 38.3001
1173 0.012818 744.764 7.27383 1.11351e-05 38.2833
1174 0.0128292 744.873 7.28213 1.11351e-05 38.2666
1175 0.0128403 744.981 7.29042 1.11351e-05 38.2499
1176 0.0128514 745.09 7.29872 1.11351e-05 38.2332
1177 0.0128626 745.198 7.30702 1.11351e-05 38.2166
1178 0.0128737 745.307 7.31531 1.11351e-05 38.2
1179 0.0128848 745.415 7.32361 1.11351e-05 38.1834
1180 0.012896 745.523 7.33191 1.11351e-05 38.1669
1181 0.0129071 745.631 7.34022 1.11351e-05 38.1504
1182 0.0129182 745.739 7.34852 1.11351e-05 38.1339
1183 0.0129294 745.847 7.35682 1.11351e-05 38.1174
1184 0.0129405 745.955 7.36513 1.11351e-05 38.101
1185 0.0129516 746.063 7.37344 1.11351e-05 38.0846
1186 0.0129628 746.171 7.38174 1.11351e-05 38.0682
1187 0.0129739 746.278 7.39005 1.11351e-05 38.0518
1188 0.0129851 746.386 7.39836 1.11351e-05 38.0355
1189 0.0129962 746.493 7.40668 1.11351e-05 38.0192
1190 0.0130073 746.6 7.41499 1.11351e-05 38.0029
1191 0.0130185 746.707 7.4233 1.11351e-05 37.9867
1192 0.0130296 746.814 7.43162 1.11351e-05 37.9705
1193 0.0130407 746.921 7.43993 1.11351e-05 37.9543
1194 0.0130519 747.028 7.44825 1.11351e-05 37.9381
1195 0.013063 747.135 7.45657 1.11351e-05 37.922
1196 0.0130741 747.242 7.46489 1.11351e-05 37.9059
1197 0.0130853 747.349 7.47321 1.11351e-05 37.8898
1198 0.0130964 747.455 7.48153 1.11351e-05 37.8737
1199 0.0131075 747.562 7.48986 1.11351e-05 37.8577
1200 0.0131187 747.668 7.49818 1.11351e-05 37.8417
1201 0.0131298 747.774 7.50651 1.11351e-05 37.8257
1202 0.0131409 747.88 7.51484 1.11351e-05 37.8098
1203 0.0131521 747.987 7.52316 1.11351e-05 37.7939
1204 0.0131632 748.093 7.53149 1.11351e-05 37.778
1205 0.0131743 748.198 7.53982 1.11351e-05 37.7621
1206 0.0131855 748.304 7.54816 1.11351e-05 37.7462
1207 0.0131966 748.41 7.55649 1.11351e-05 37.7304
1208 0.0132078 748.516 7.56482 1.11351e-05 37.7146
1209 0.0132189 748.621 7.57316 1.11351e-05 37.6988
1210 0.01323 748.727 7.5815 1.11351e-05 37.6831
1211 0.0132412 748.832 7.58983 1.11351e-05 37.6674
1212 0.0132523 748.937 7.59817 1.11351e-05 37.6517
1213 0.0132634 749.043 7.60651 1.11351e-05 37.636
1214 0.0132746 749.148 7.61485 1.11351e-05 37.6204
1215 0.0132857 749.253 7.6232 1.11351e-05 37.6047
1216 0.0132968 749.358 7.63154 1.11351e-05 37.5891
1217 0.013308 749.463 7.63988 1.11351e-05 37.5736
1218 0.0133191 749.567 7.64823 1.11351e-05 37.558
1219 0.0133302 749.672 7.65658 1.11351e-05 37.5425
1220 0.0133414 749.777 7.66493 1.11351e-05 37.527
1221 0.0133525 749.881 7.67328 1.11351e-05 37.5115
1222 0.0133636 749.986 7.68163 1.11351e-05 37.4961
1223 0.0133748 750.09 7.68998 1.11351e-05 37.4807
1224 0.0133859 750.194 7.69833 1.11351e-05 37.4653
1225 0.013397 750.298 7.70668 1.11351e-05 37.4499
1226 0.0134082 750.403 7.71504 1.11351e-05 37.4346
1227 0.0134193 750.507 7.7234 1.11351e-05 37.4192
1228 0.0134305 750.61 7.73175 1.11351e-05 37.4039
1229 0.0134416 750.714 7.74011 1.11351e-05 37.3886
1230 0.0134527 750.818 7.74847 1.11351e-05 37.3734
1231 0.0134639 750.922 7.75683 1.11351e-05 37.3582
1232 0.013475 751.025 7.7652 1.11351e-05 37.343
1233 0.0134861 751.129 7.77356 1.11351e-05 37.3278
1234 0.0134973 751.232 7.78192 1.11351e-05 37.3126
1235 0.0135084 751.335 7.79029 1.11351e-05 37.2975
1236 0.0135195 751.439 7.79866 1.11351e-05 37.2824
1237 0.0135307 751.542 7.80702 1.11351e-05 37.2673
1238 0.0135418 751.645 7.81539 1.11351e-05 37.2522
1239 0.0135529 751.748 7.82376 1.11351e-05 37.2372
1240 0.0135641 751.851 7.83213 1.11351e-05 37.2221
1241 0.0135752 751.954 7.84051 1.11351e-05 37.2071
1242 0.0135863 752.056 7.84888 1.11351e-05 37.1922
1243 0.0135975 752.159 7.85725 1.11351e-05 37.1772
1244 0.0136086 752.261 7.86563 1.11351e-05 37.1623
1245 0.0136198 752.364 7.87401 1.11351e-05 37.1474
1246 0.0136309 752.466 7.88239 1.11351e-05 37.1325
1247 0.013642 752.569 7.89077 1.11351e-05 37.1176
1248 0.0136532 752.671 7.89915 1.11351e-05 37.1028
1249 0.0136643 752.773 7.90753 1.11351e-05 37.088
1250 0.0136754 752.875 7.91591 1.11351e-05 37.0732
1251 0.0136866 752.977 7.92429 1.11351e-05 37.0584
1252 0.0136977 753.079 7.93268 1.11351e-05 37.0437
1253 0.0137088 753.181 7.94107 1.11351e-05 37.0289
1254 0.01372 753.282 7.94945 1.11351e-05 37.0142
1255 0.0137311 753.384 7.95784 1.11351e-05 36.9996
1256 0.0137422 753.486 7.96623 1.11351e-05 36.9849
1257 0.0137534 753.587 7.97462 1.11351e-05 36.9703
1258 0.0137645 753.689 7.98301 1.11351e-05 36.9556
1259 0.0137756 753.79 7.99141 1.11351e-05 36.9411
1260 0.0137868 753.891 7.9998 1.11351e-05 36.9265
1261 0.0137979 753.992 8.0082 1.11351e-05 36.9119
1262 0.013809 754.093 8.01659 1.11351e-05 36.8974
1263 0.0138202 754.194 8.02499 1.11351e-05 36.8829
1264 0.0138313 754.295 8.03339 1.11351e-05 36.8684
1265 0.0138425 754.396 8.04179 1.11351e-05 36.8539
1266 0.0138536 754.497 8.05019 1.11351e-05 36.8395
1267 0.0138647 754.597 8.05859 1.11351e-05 36.8251
1268 0.0138759 754.698 8.06699 1.11351e-05 36.8107
1269 0.013887 754.799 8.0754 1.11351e-05 36.7963
1270 0.0138981 754.899 8.0838 1.11351e-05 36.7819
1271 0.0139093 754.999 8.09221 1.11351e-05 36.7676
1272 0.0139204 755.1 8.10062 1.11351e-05 36.7533
1273 0.0139315 755.2 8.10903 1.11351e-05 36.739
1274 0.0139427 755.3 8.11744 1.11351e-05 36.7247
1275 0.0139538 755.4 8.12585 1.11351e-05 36.7104
1276 0.0139649 755.5 8.13426 1.22486e-05 36.6962
1277 0.0139772 755.61 8.14351 1.22486e-05 36.6806
1278 0.0139894 755.719 8.15277 1.22486e-05 36.665
1279 0.0140017 755.829 8.16203 1.22486e-05 36.6494
1280 0.0140139 755.939 8.17128 1.22486e-05 36.6338
1281 0.0140262 756.048 8.18054 1.22486e-05 36.6183
1282 0.0140384 756.158 8.18981 1.22486e-05 36.6028
1283 0.0140507 756.267 8.19907 1.22486e-05 36.5873
1284 0.0140629 756.376 8.20833 1.22486e-05 36.5718
1285 0.0140752 756.485 8.2176 1.22486e-05 36.5564
1286 0.0140874 756.594 8.22686 1.22486e-05 36.541
1287 0.0140997 756.703 8.23613 1.22486e-05 36.5256
1288 0.0141119 756.812 8.2454 1.22486e-05 36.5102
1289 0.0141242 756.92 8.25467 1.22486e-05 36.4949
1290 0.0141364 757.029 8.26394 1.22486e-05 36.4796
1291 0.0141487 757.138 8.27322 1.22486e-05 36.4643
1292 0.0141609 757.246 8.28249 1.22486e-05 36.449
1293 0.0141732 757.354 8.29177 1.22486e-05 36.4338
1294 0.0141854 757.463 8.30104 1.22486e-05 36.4185
1295 0.0141977 757.571 8.31032 1.22486e-05 36.4033
1296 0.0142099 757.679 8.3196 1.22486e-05 36.3882
1297 0.0142222 757.787 8.32888 1.22486e-05 36.373
1298 0.0142344 757.895 8.33817 1.22486e-05 36.3579
1299 0.0142467 758.002 8.34745 1.22486e-05 36.3428
1300 0.0142589 758.11 8.35673 1.22486e-05 36.3277
1301 0.0142712 758.218 8.36602 1.22486e-05 36.3126
1302 0.0142834 758.325 8.37531 1.22486e-05 36.2976
1303 0.0142957 758.433 8.3846 1.22486e-05 36.2826
1304 0.0143079 758.54 8.39389 1.22486e-05 36.2676
1305 0.0143201 758.647 8.40318 1.22486e-05 36.2526
1306 0.0143324 758.754 8.41247 1.22486e-05 36.2377
1307 0.0143446 758.861 8.42177 1.22486e-05 36.2228
1308 0.0143569 758.968 8.43106 1.22486e-05 36.2079
1309 0.0143691 759.075 8.44036 1.22486e-05 36.193
1310 0.0143814 759.182 8.44966 1.22486e-05 36.1781
1311 0.0143936 759.288 8.45896 1.22486e-05 36.1633
1312 0.0144059 759.395 8.46826 1.22486e-05 36.1485
1313 0.0144181 759.501 8.47756 1.22486e-05 36.1337
1314 0.0144304 759.608 8.48686 1.22486e-05 36.1189
1315 0.0144426 759.714 8.49617 1.22486e-05 36.1042
1316 0.0144549 759.82 8.50548 1.22486e-05 36.0895
1317 0.0144671 759.927 8.51478 1.22486e-05 36.0748
1318 0.0144794 760.033 8.52409 1.22486e-05 36.0601
1319 0.0144916 760.139 8.5334 1.22486e-05 36.0454
1320 0.0145039 760.244 8.54271 1.22486e-05 36.0308
1321 0.0145161 760.35 8.55203 1.22486e-05 36.0162
1322 0.0145284 760.456 8.56134 1.22486e-05 36.0016
1323 0.0145406 760.561 8.57065 1.22486e-05 35.987
1324 0.0145529 760.667 8.57997 1.22486e-05 35.9725
1325 0.0145651 760.772 8.58929 1.22486e-05 35.9579
1326 0.0145774 760.878 8.59861 1.22486e-05 35.9434
1327 0.0145896 760.983 8.60793 1.22486e-05 35.929
1328 0.0146019 761.088 8.61725 1.22486e-05 35.9145
1329 0.0146141 761.193 8.62657 1.22486e-05 35.9001
1330 0.0146264 761.298 8.6359 1.22486e-05 35.8856
1331 0.0146386 761.403 8.64522 1.22486e-05 35.8712
1332 0.0146509 761.508 8.65455 1.22486e-05 35.8569
1333 0.0146631 761.612 8.66388 1.22486e-05 35.8425
1334 0.0146754 761.717 8.67321 1.22486e-05 35.8282
1335 0.0146876 761.822 8.68254 1.22486e-05 35.8138
1336 0.0146999 761.926 8.69187 1.22486e-05 35.7995
1337 0.0147121 762.03 8.7012 1.22486e-05 35.7853
1338 0.0147244 762.135 8.71054 1.22486e-05 35.771
1339 0.0147366 762.239 8.71987 1.22486e-05 35.7568
1340 0.0147488 762.343 8.72921 1.22486e-05 35.7426
1341 0.0147611 762.447 8.73855 1.22486e-05 35.7284
1342 0.0147733 762.551 8.74789 1.22486e-05 35.7142
1343 0.0147856 762.655 8.75723 1.22486e-05 35.7001
1344 0.0147978 762.758 8.76657 1.22486e-05 35.6859
1345 0.0148101 762.862 8.77591 1.22486e-05 35.6718
1346 0.0148223 762.966 8.78526 1.22486e-05 35.6577
1347 0.0148346 763.069 8.7946 1.22486e-05 35.6437
1348 0.0148468 763.172 8.80395 1.22486e-05 35.6296
1349 0.0148591 763.276 8.8133 1.22486e-05 35.6156
1350 0.0148713 763.379 8.82265 1.22486e-05 35.6016
1351 0.0148836 763.482 8.832 1.22486e-05 35.5876
1352 0.0148958 763.585 8.84135 1.22486e-05 35.5736
1353 0.0149081 763.688 8.85071 1.22486e-05 35.5596
1354 0.0149203 763.791 8.86006 1.22486e-05 35.5457
1355 0.0149326 763.894 8.86942 1.22486e-05 35.5318
1356 0.0149448 763.997 8.87877 1.22486e-05 35.5179
1357 0.0149571 764.099 8.88813 1.22486e-05 35.504
1358 0.0149693 764.202 8.89749 1.22486e-05 35.4902
1359 0.0149816 764.304 8.90685 1.22486e-05 35.4763
1360 0.0149938 764.407 8.91622 1.22486e-05 35.4625
1361 0.0150061 764.509 8.92558 1.22486e-05 35.4487
1362 0.0150183 764.611 8.93494 1.22486e-05 35.4349
1363 0.0150306 764.713 8.94431 1.22486e-05 35.4212
1364 0.0150428 764.815 8.95368 1.22486e-05 35.4074
1365 0.0150551 764.917 8.96305 1.22486e-05 35.3937
1366 0.0150673 765.019 8.97242 1.22486e-05 35.38
1367 0.0150796 765.121 8.98179 1.22486e-05 35.3663
1368 0.0150918 765.223 8.99116 1.22486e-05 35.3527
1369 0.0151041 765.324 9.00053 1.22486e-05 35.339
1370 0.0151163 765.426 9.00991 1.22486e-05 35.3254
1371 0.0151286 765.527 9.01928 1.22486e-05 35.3118
1372 0.0151408 765.629 9.02866 1.22486e-05 35.2982
1373 0.0151531 765.73 9.03804 1.22486e-05 35.2846
1374 0.0151653 765.831 9.04742 1.22486e-05 35.2711
1375 0.0151776 765.932 9.0568 1.22486e-05 35.2576
1376 0.0151898 766.033 9.06618 1.22486e-05 35.244
1377 0.015202 766.134 9.07557 1.22486e-05 35.2305
1378 0.0152143 766.235 9.08495 1.22486e-05 35.2171
1379 0.0152265 766.336 9.09434 1.22486e-05 35.2036
1380 0.0152388 766.437 9.10372 1.22486e-05 35.1902
1381 0.015251 766.537 9.11311 1.22486e-05 35.1767
1382 0.0152633 766.638 9.1225 1.22486e-05 35.1633
1383 0.0152755 766.738 9.13189 1.22486e-05 35.1499
1384 0.0152878 766.839 9.14128 1.22486e-05 35.1366
1385 0.0153 766.939 9.15068 1.22486e-05 35.1232
1386 0.0153123 767.039 9.16007 1.22486e-05 35.1099
1387 0.0153245 767.139 9.16947 1.22486e-05 35.0966
1388 0.0153368 767.239 9.17886 1.22486e-05 35.0833
1389 0.015349 767.339 9.18826 1.34735e-05 35.07
1390 0.0153625 767.449 9.1986 1.34735e-05 35.0554
1391 0.015376 767.559 9.20894 1.34735e-05 35.0408
1392 0.0153895 767.669 9.21929 1.34735e-05 35.0263
1393 0.0154029 767.778 9.22963 1.34735e-05 35.0118
1394 0.0154164 767.888 9.23997 1.34735e-05 34.9973
1395 0.0154299 767.997 9.25032 1.34735e-05 34.9828
1396 0.0154433 768.106 9.26067 1.34735e-05 34.9683
1397 0.0154568 768.216 9.27102 1.34735e-05 34.9539
1398 0.0154703 768.325 9.28137 1.34735e-05 34.9395
1399 0.0154838 768.434 9.29172 1.34735e-05 34.9251
1400 0.0154972 768.543 9.30208 1.34735e-05 34.9107
1401 0.0155107 768.652 9.31243 1.34735e-05 34.8963
1402 0.0155242 768.76 9.32279 1.34735e-05 34.882
1403 0.0155377 768.869 9.33315 1.34735e-05 34.8677
1404 0.0155511 768.977 9.34351 1.34735e-05 34.8534
1405 0.0155646 769.086 9.35387 1.34735e-05 34.8391
1406 0.0155781 769.194 9.36423 1.34735e-05 34.8248
1407 0.0155916 769.302 9.3746 1.34735e-05 34.8106
1408 0.015605 769.411 9.38496 1.34735e-05 34.7964
1409 0.0156185 769.519 9.39533 1.34735e-05 34.7822
1410 0.015632 769.627 9.4057 1.34735e-05 34.768
1411 0.0156454 769.735 9.41607 1.34735e-05 34.7539
1412 0.0156589 769.842 9.42644 1.34735e-05 34.7397
1413 0.0156724 769.95 9.43682 1.34735e-05 34.7256
1414 0.0156859 770.058 9.44719 1.34735e-05 34.7115
1415 0.0156993 770.165 9.45757 1.34735e-05 34.6975
1416 0.0157128 770.272 9.46794 1.34735e-05 34.6834
1417 0.0157263 770.38 9.47832 1.34735e-05 34.6694
1418 0.0157398 770.487 9.4887 1.34735e-05 34.6554
1419 0.0157532 770.594 9.49908 1.34735e-05 34.6414
1420 0.0157667 770.701 9.50947 1.34735e-05 34.6274
1421 0.0157802 770.808 9.51985 1.34735e-05 34.6134
1422 0.0157937 770.915 9.53024 1.34735e-05 34.5995
1423 0.0158071 771.022 9.54063 1.34735e-05 34.5856
1424 0.0158206 771.128 9.55102 1.34735e-05 34.5717
1425 0.0158341 771.235 9.56141 1.34735e-05 34.5578
1426 0.0158475 771.341 9.5718 1.34735e-05 34.544
1427 0.015861 771.448 9.58219 1.34735e-05 34.5301
1428 0.0158745 771.554 9.59259 1.34735e-05 34.5163
1429 0.015888 771.66 9.60298 1.34735e-05 34.5025
1430 0.0159014 771.766 9.61338 1.34735e-05 34.4887
1431 0.0159149 771.872 9.62378 1.34735e-05 34.4749
1432 0.0159284 771.978 9.63418 1.34735e-05 34.4612
1433 0.0159419 772.084 9.64458 1.34735e-05 34.4475
1434 0.0159553 772.19 9.65499 1.34735e-05 34.4338
1435 0.0159688 772.295 9.66539 1.34735e-05 34.4201
1436 0.0159823 772.401 9.6758 1.34735e-05 34.4064
1437 0.0159958 772.506 9.6862 1.34735e-05 34.3928
1438 0.0160092 772.612 9.69661 1.34735e-05 34.3791
1439 0.0160227 772.717 9.70702 1.34735e-05 34.3655
1440 0.0160362 772.822 9.71744 1.34735e-05 34.3519
1441 0.0160497 772.927 9.72785 1.34735e-05 34.3383
1442 0.0160631 773.032 9.73826 1.34735e-05 34.3248
1443 0.0160766 773.137 9.74868 1.34735e-05 34.3112
1444 0.0160901 773.242 9.7591 1.34735e-05 34.2977
1445 0.0161035 773.347 9.76952 1.34735e-05 34.2842
1446 0.016117 773.452 9.77994 1.34735e-05 34.2707
1447 0.0161305 773.556 9.79036 1.34735e-05 34.2573
1448 0.016144 773.661 9.80078 1.34735e-05 34.2438
1449 0.0161574 773.765 9.81121 1.34735e-05 34.2304
1450 0.0161709 773.869 9.82163 1.34735e-05 34.217
1451 0.0161844 773.973 9.83206 1.34735e-05 34.2036
1452 0.0161979 774.078 9.84249 1.34735e-05 34.1902
1453 0.0162113 774.182 9.85292 1.34735e-05 34.1768
1454 0.0162248 774.286 9.86335 1.34735e-05 34.1635
1455 0.0162383 774.389 9.87378 1.34735e-05 34.1502
1456 0.0162518 774.493 9.88422 1.34735e-05 34.1369
1457 0.0162652 774.597 9.89465 1.34735e-05 34.1236
1458 0.0162787 774.7 9.90509 1.34735e-05 34.1103
1459 0.0162922 774.804 9.91553 1.34735e-05 34.097
1460 0.0163056 774.907 9.92597 1.34735e-05 34.0838
1461 0.0163191 775.011 9.93641 1.34735e-05 34.0706
1462 0.0163326 775.114 9.94685 1.34735e-05 34.0574
1463 0.0163461 775.217 9.9573 1.34735e-05 34.0442
1464 0.0163595 775.32 9.96774 1.34735e-05 34.031
1465 0.016373 775.423 9.97819 1.34735e-05 34.0179
1466 0.0163865 775.526 9.98864 1.34735e-05 34.0047
1467 0.0164 775.629 9.99909 1.34735e-05 33.9916
1468 0.0164134 775.731 10.0095 1.34735e-05 33.9785
1469 0.0164269 775.834 10.02 1.34735e-05 33.9654
1470 0.0164404 775.937 10.0304 1.34735e-05 33.9524
1471 0.0164539 776.039 10.0409 1.34735e-05 33.9393
1472 0.0164673 776.141 10.0514 1.34735e-05 33.9263
1473 0.0164808 776.244 10.0618 1.34735e-05 33.9133
1474 0.0164943 776.346 10.0723 1.34735e-05 33.9003
1475 0.0165077 776.448 10.0827 1.34735e-05 33.8873
1476 0.0165212 776.55 10.0932 1.34735e-05 33.8743
1477 0.0165347 776.652 10.1037 1.34735e-05 33.8614
1478 0.0165482 776.754 10.1141 1.34735e-05 33.8485
1479 0.0165616 776.856 10.1246 1.34735e-05 33.8355
1480 0.0165751 776.957 10.1351 1.34735e-05 33.8226
1481 0.0165886 777.059 10.1455 1.34735e-05 33.8098
1482 0.0166021 777.16 10.156 1.34735e-05 33.7969
1483 0.0166155 777.262 10.1665 1.34735e-05 33.784
1484 0.016629 777.363 10.1769 1.34735e-05 33.7712
1485 0.0166425 777.465 10.1874 1.34735e-05 33.7584
1486 0.016656 777.566 10.1979 1.34735e-05 33.7456
1487 0.0166694 777.667 10.2084 1.34735e-05 33.7328
1488 0.0166829 777.768 10.2188 1.34735e-05 33.72
1489 0.0166964 777.869 10.2293 1.34735e-05 33.7073
1490 0.0167099 777.97 10.2398 1.34735e-05 33.6946
1491 0.0167233 778.07 10.2503 1.34735e-05 33.6818
1492 0.0167368 778.171 10.2608 1.34735e-05 33.6691
1493 0.0167503 778.272 10.2713 1.34735e-05 33.6564
1494 0.0167637 778.372 10.2817 1.34735e-05 33.6438
1495 0.0167772 778.472 10.2922 1.34735e-05 33.6311
1496 0.0167907 778.573 10.3027 1.34735e-05 33.6185
1497 0.0168042 778.673 10.3132 1.34735e-05 33.6059
1498 0.0168176 778.773 10.3237 1.34735e-05 33.5933
1499 0.0168311 778.873 10.3342 1.34735e-05 33.5807
1500 0.0168446 778.973 10.3447 1.34735e-05 33.5681
1501 0.0168581 779.073 10.3552 1.48208e-05 33.5555
1502 0.0168729 779.183 10.3667 1.48208e-05 33.5417
1503 0.0168877 779.293 10.3783 1.48208e-05 33.5279
1504 0.0169025 779.402 10.3898 1.48208e-05 33.5142
1505 0.0169173 779.512 10.4014 1.48208e-05 33.5004
1506 0.0169322 779.621 10.4129 1.48208e-05 33.4867
1507 0.016947 779.731 10.4245 1.48208e-05 33.473
1508 0.0169618 779.84 10.4361 1.48208e-05 33.4593
1509 0.0169766 779.949 10.4476 1.48208e-05 33.4456
1510 0.0169914 780.058 10.4592 1.48208e-05 33.432
1511 0.0170063 780.167 10.4707 1.48208e-05 33.4184
1512 0.0170211 780.276 10.4823 1.48208e-05 33.4048
1513 0.0170359 780.385 10.4939 1.48208e-05 33.3912
1514 0.0170507 780.493 10.5054 1.48208e-05 33.3776
1515 0.0170655 780.602 10.517 1.48208e-05 33.364
1516 0.0170804 780.71 10.5286 1.48208e-05 33.3505
1517 0.0170952 780.819 10.5401 1.48208e-05 33.337
1518 0.01711 780.927 10.5517 1.48208e-05 33.3235
1519 0.0171248 781.035 10.5633 1.48208e-05 33.31
1520 0.0171397 781.143 10.5749 1.48208e-05 33.2965
1521 0.0171545 781.251 10.5864 1.48208e-05 33.283
1522 0.0171693 781.359 10.598 1.48208e-05 33.2696
1523 0.0171841 781.467 10.6096 1.48208e-05 33.2562
1524 0.0171989 781.574 10.6212 1.48208e-05 33.2428
1525 0.0172138 781.682 10.6328 1.48208e-05 33.2294
1526 0.0172286 781.789 10.6444 1.48208e-05 33.2161
1527 0.0172434 781.897 10.6559 1.48208e-05 33.2027
1528 0.0172582 782.004 10.6675 1.48208e-05 33.1894
1529 0.017273 782.111 10.6791 1.48208e-05 33.1761
1530 0.0172879 782.218 10.6907 1.48208e-05 33.1628
1531 0.0173027 782.325 10.7023 1.48208e-05 33.1495
1532 0.0173175 782.432 10.7139 1.48208e-05 33.1362
1533 0.0173323 782.539 10.7255 1.48208e-05 33.123
1534 0.0173471 782.646 10.7371 1.48208e-05 33.1098
1535 0.017362 782.752 10.7487 1.48208e-05 33.0966
1536 0.0173768 782.859 10.7603 1.48208e-05 33.0834
1537 0.0173916 782.965 10.7719 1.48208e-05 33.0702
1538 0.0174064 783.071 10.7835 1.48208e-05 33.0571
1539 0.0174212 783.178 10.7951 1.48208e-05 33.0439
1540 0.0174361 783.284 10.8067 1.48208e-05 33.0308
1541 0.0174509 783.39 10.8183 1.48208e-05 33.0177
1542 0.0174657 783.496 10.83 1.48208e-05 33.0046
1543 0.0174805 783.602 10.8416 1.48208e-05 32.9915
1544 0.0174954 783.707 10.8532 1.48208e-05 32.9785
1545 0.0175102 783.813 10.8648 1.48208e-05 32.9655
1546 0.017525 783.919 10.8764 1.48208e-05 32.9524
1547 0.0175398 784.024 10.888 1.48208e-05 32.9394
1548 0.0175546 784.13 10.8997 1.48208e-05 32.9264
1549 0.0175695 784.235 10.9113 1.48208e-05 32.9135
1550 0.0175843 784.34 10.9229 1.48208e-05 32.9005
1551 0.0175991 784.445 10.9345 1.48208e-05 32.8876
1552 0.0176139 784.55 10.9462 1.48208e-05 32.8747
1553 0.0176287 784.655 10.9578 1.48208e-05 32.8618
1554 0.0176436 784.76 10.9694 1.48208e-05 32.8489
1555 0.0176584 784.865 10.981 1.48208e-05 32.836
1556 0.0176732 784.969 10.9927 1.48208e-05 32.8231
1557 0.017688 785.074 11.0043 1.48208e-05 32.8103
1558 0.0177028 785.178 11.0159 1.48208e-05 32.7975
1559 0.0177177 785.283 11.0276 1.48208e-05 32.7847
1560 0.0177325 785.387 11.0392 1.48208e-05 32.7719
1561 0.0177473 785.491 11.0509 1.48208e-05 32.7591
1562 0.0177621 785.595 11.0625 1.48208e-05 32.7464
1563 0.0177769 785.699 11.0741 1.48208e-05 32.7336
1564 0.0177918 785.803 11.0858 1.48208e-05 32.7209
1565 0.0178066 785.907 11.0974 1.48208e-05 32.7082
1566 0.0178214 786.011 11.1091 1.48208e-05 32.6955
1567 0.0178362 786.114 11.1207 1.48208e-05 32.6828
1568 0.0178511 786.218 11.1324 1.48208e-05 32.6701
1569 0.0178659 786.322 11.144 1.48208e-05 32.6575
1570 0.0178807 786.425 11.1557 1.48208e-05 32.6449
1571 0.0178955 786.528 11.1674 1.48208e-05 32.6322
1572 0.0179103 786.631 11.179 1.48208e-05 32.6196
1573 0.0179252 786.734 11.1907 1.48208e-05 32.607
1574 0.01794 786.838 11.2023 1.48208e-05 32.5945
1575 0.0179548 786.94 11.214 1.48208e-05 32.5819
1576 0.0179696 787.043 11.2257 1.48208e-05 32.5694
1577 0.0179844 787.146 11.2373 1.48208e-05 32.5569
1578 0.0179993 787.249 11.249 1.48208e-05 32.5444
1579 0.0180141 787.351 11.2607 1.48208e-05 32.5319
1580 0.0180289 787.454 11.2723 1.48208e-05 32.5194
1581 0.0180437 787.556 11.284 1.48208e-05 32.5069
1582 0.0180585 787.658 11.2957 1.48208e-05 32.4945
1583 0.0180734 787.761 11.3073 1.48208e-05 32.482
1584 0.0180882 787.863 11.319 1.48208e-05 32.4696
1585 0.018103 787.965 11.3307 1.48208e-05 32.4572
1586 0.0181178 788.067 11.3424 1.48208e-05 32.4448
1587 0.0181326 788.169 11.3541 1.48208e-05 32.4325
1588 0.0181475 788.27 11.3657 1.48208e-05 32.4201
1589 0.0181623 788.372 11.3774 1.48208e-05 32.4078
1590 0.0181771 788.474 11.3891 1.48208e-05 32.3954
1591 0.0181919 788.575 11.4008 1.48208e-05 32.3831
1592 0.0182068 788.677 11.4125 1.48208e-05 32.3708
1593 0.0182216 788.778 11.4242 1.48208e-05 32.3585
1594 0.0182364 788.879 11.4359 1.48208e-05 32.3463
1595 0.0182512 788.98 11.4476 1.48208e-05 32.334
1596 0.018266 789.082 11.4593 1.48208e-05 32.3218
1597 0.0182809 789.183 11.471 1.48208e-05 32.3096
1598 0.0182957 789.283 11.4826 1.48208e-05 32.2973
1599 0.0183105 789.384 11.4943 1.48208e-05 32.2852
1600 0.0183253 789.485 11.506 1.48208e-05 32.273
1601 0.0183401 789.586 11.5177 1.48208e-05 32.2608
1602 0.018355 789.686 11.5295 1.48208e-05 32.2487
1603 0.0183698 789.787 11.5412 1.48208e-05 32.2365
1604 0.0183846 789.887 11.5529 1.48208e-05 32.2244
1605 0.0183994 789.987 11.5646 1.48208e-05 32.2123
1606 0.0184142 790.088 11.5763 1.48208e-05 32.2002
1607 0.0184291 790.188 11.588 1.48208e-05 32.1881
1608 0.0184439 790.288 11.5997 1.48208e-05 32.1761
1609 0.0184587 790.388 11.6114 1.63029e-05 32.164
1610 0.018475 790.498 11.6243 1.63029e-05 32.1508
1611 0.0184913 790.607 11.6372 1.63029e-05 32.1375
1612 0.0185076 790.717 11.6501 1.63029e-05 32.1243
1613 0.0185239 790.827 11.663 1.63029e-05 32.1111
1614 0.0185402 790.936 11.6759 1.63029e-05 32.098
1615 0.0185565 791.045 11.6888 1.63029e-05 32.0848
1616 0.0185728 791.155 11.7017 1.63029e-05 32.0717
1617 0.0185891 791.264 11.7146 1.63029e-05 32.0586
1618 0.0186054 791.373 11.7275 1.63029e-05 32.0455
1619 0.0186217 791.482 11.7404 1.63029e-05 32.0324
1620 0.018638 791.591 11.7533 1.63029e-05 32.0193
1621 0.0186543 791.699 11.7662 1.63029e-05 32.0062
1622 0.0186706 791.808 11.7791 1.63029e-05 31.9932
1623 0.0186869 791.917 11.792 1.63029e-05 31.9802
1624 0.0187032 792.025 11.8049 1.63029e-05 31.9672
1625 0.0187196 792.133 11.8178 1.63029e-05 31.9542
1626 0.0187359 792.242 11.8307 1.63029e-05 31.9412
1627 0.0187522 792.35 11.8436 1.63029e-05 31.9283
1628 0.0187685 792.458 11.8566 1.63029e-05 31.9153
1629 0.0187848 792.566 11.8695 1.63029e-05 31.9024
1630 0.0188011 792.673 11.8824 1.63029e-05 31.8895
1631 0.0188174 792.781 11.8953 1.63029e-05 31.8766
1632 0.0188337 792.889 11.9083 1.63029e-05 31.8637
1633 0.01885 792.996 11.9212 1.63029e-05 31.8509
1634 0.0188663 793.104 11.9341 1.63029e-05 31.838
1635 0.0188826 793.211 11.947 1.63029e-05 31.8252
1636 0.0188989 793.318 11.96 1.63029e-05 31.8124
1637 0.0189152 793.426 11.9729 1.63029e-05 31.7996
1638 0.0189315 793.533 11.9858 1.63029e-05 31.7868
1639 0.0189478 793.64 11.9988 1.63029e-05 31.7741
1640 0.0189641 793.746 12.0117 1.63029e-05 31.7613
1641 0.0189804 793.853 12.0247 1.63029e-05 31.7486
1642 0.0189967 793.96 12.0376 1.63029e-05 31.7359
1643 0.019013 794.066 12.0505 1.63029e-05 31.7232
1644 0.0190293 794.173 12.0635 1.63029e-05 31.7105
1645 0.0190456 794.279 12.0764 1.63029e-05 31.6978
1646 0.0190619 794.385 12.0894 1.63029e-05 31.6852
1647 0.0190782 794.492 12.1023 1.63029e-05 31.6725
1648 0.0190945 794.598 12.1153 1.63029e-05 31.6599
1649 0.0191108 794.704 12.1283 1.63029e-05 31.6473
1650 0.0191271 794.809 12.1412 1.63029e-05 31.6347
1651 0.0191434 794.915 12.1542 1.63029e-05 31.6221
1652 0.0191597 795.021 12.1671 1.63029e-05 31.6096
1653 0.019176 795.127 12.1801 1.63029e-05 31.597
1654 0.0191923 795.232 12.1931 1.63029e-05 31.5845
1655 0.0192086 795.337 12.206 1.63029e-05 31.572
1656 0.0192249 795.443 12.219 1.63029e-05 31.5595
1657 0.0192412 795.548 12.232 1.63029e-05 31.547
1658 0.0192575 795.653 12.2449 1.63029e-05 31.5346
1659 0.0192739 795.758 12.2579 1.63029e-05 31.5221
1660 0.0192902 795.863 12.2709 1.63029e-05 31.5097
1661 0.0193065 795.968 12.2838 1.63029e-05 31.4972
1662 0.0193228 796.072 12.2968 1.63029e-05 31.4848
1663 0.0193391 796.177 12.3098 1.63029e-05 31.4725
1664 0.0193554 796.282 12.3228 1.63029e-05 31.4601
1665 0.0193717 796.386 12.3358 1.63029e-05 31.4477
1666 0.019388 796.49 12.3488 1.63029e-05 31.4354
1667 0.0194043 796.595 12.3617 1.63029e-05 31.423
1668 0.0194206 796.699 12.3747 1.63029e-05 31.4107
1669 0.0194369 796.803 12.3877 1.63029e-05 31.3984
1670 0.0194532 796.907 12.4007 1.63029e-05 31.3861
1671 0.0194695 797.011 12.4137 1.63029e-05 31.3738
1672 0.0194858 797.114 12.4267 1.63029e-05 31.3616
1673 0.0195021 797.218 12.4397 1.63029e-05 31.3493
1674 0.0195184 797.322 12.4527 1.63029e-05 31.3371
1675 0.0195347 797.425 12.4657 1.63029e-05 31.3249
1676 0.019551 797.529 12.4787 1.63029e-05 31.3127
1677 0.0195673 797.632 12.4917 1.63029e-05 31.3005
1678 0.0195836 797.735 12.5047 1.63029e-05 31.2883
1679 0.0195999 797.838 12.5177 1.63029e-05 31.2762
1680 0.0196162 797.941 12.5307 1.63029e-05 31.264
1681 0.0196325 798.044 12.5437 1.63029e-05 31.2519
1682 0.0196488 798.147 12.5567 1.63029e-05 31.2398
1683 0.0196651 798.25 12.5697 1.63029e-05 31.2277
1684 0.0196814 798.353 12.5828 1.63029e-05 31.2156
1685 0.0196977 798.455 12.5958 1.63029e-05 31.2035
1686 0.019714 798.558 12.6088 1.63029e-05 31.1915
1687 0.0197303 798.66 12.6218 1.63029e-05 31.1794
1688 0.0197466 798.762 12.6348 1.63029e-05 31.1674
1689 0.0197629 798.865 12.6479 1.63029e-05 31.1554
1690 0.0197792 798.967 12.6609 1.63029e-05 31.1434
1691 0.0197955 799.069 12.6739 1.63029e-05 31.1314
1692 0.0198118 799.171 12.6869 1.63029e-05 31.1194
1693 0.0198281 799.272 12.7 1.63029e-05 31.1075
1694 0.0198445 799.374 12.713 1.63029e-05 31.0955
1695 0.0198608 799.476 12.726 1.63029e-05 31.0836
1696 0.0198771 799.577 12.7391 1.63029e-05 31.0717
1697 0.0198934 799.679 12.7521 1.63029e-05 31.0598
1698 0.0199097 799.78 12.7651 1.63029e-05 31.0479
1699 0.019926 799.882 12.7782 1.63029e-05 31.036
1700 0.0199423 799.983 12.7912 1.63029e-05 31.0241
1701 0.0199586 800.084 12.8043 1.63029e-05 31.0123
1702 0.0199749 800.185 12.8173 1.63029e-05 31.0005
1703 0.0199912 800.286 12.8304 1.63029e-05 30.9886
1704 0.0200075 800.387 12.8434 1.63029e-05 30.9768
1705 0.0200238 800.488 12.8565 1.63029e-05 30.965
1706 0.0200401 800.588 12.8695 1.63029e-05 30.9533
1707 0.0200564 800.689 12.8826 1.63029e-05 30.9415
1708 0.0200727 800.789 12.8956 1.63029e-05 30.9297
1709 0.020089 800.89 12.9087 1.63029e-05 30.918
1710 0.0201053 800.99 12.9217 1.63029e-05 30.9063
1711 0.0201216 801.09 12.9348 1.63029e-05 30.8946
1712 0.0201379 801.19 12.9478 1.63029e-05 30.8829
1713 0.0201542 801.29 12.9609 1.63029e-05 30.8712
1714 0.0201705 801.39 12.974 1.79332e-05 30.8595
1715 0.0201884 801.5 12.9883 1.79332e-05 30.8467
1716 0.0202064 801.61 13.0027 1.79332e-05 30.8339
1717 0.0202243 801.72 13.0171 1.79332e-05 30.8211
1718 0.0202422 801.829 13.0315 1.79332e-05 30.8083
1719 0.0202602 801.939 13.0459 1.79332e-05 30.7955
1720 0.0202781 802.048 13.0602 1.79332e-05 30.7828
1721 0.020296 802.157 13.0746 1.79332e-05 30.77
1722 0.020314 802.266 13.089 1.79332e-05 30.7573
1723 0.0203319 802.375 13.1034 1.79332e-05 30.7446
1724 0.0203498 802.484 13.1178 1.79332e-05 30.7319
1725 0.0203678 802.593 13.1322 1.79332e-05 30.7193
1726 0.0203857 802.702 13.1466 1.79332e-05 30.7066
1727 0.0204036 802.81 13.161 1.79332e-05 30.694
1728 0.0204216 802.919 13.1754 1.79332e-05 30.6814
1729 0.0204395 803.027 13.1898 1.79332e-05 30.6688
1730 0.0204574 803.135 13.2042 1.79332e-05 30.6562
1731 0.0204754 803.244 13.2186 1.79332e-05 30.6436
1732 0.0204933 803.352 13.233 1.79332e-05 30.631
1733 0.0205112 803.46 13.2474 1.79332e-05 30.6185
1734 0.0205292 803.568 13.2618 1.79332e-05 30.6059
1735 0.0205471 803.675 13.2762 1.79332e-05 30.5934
1736 0.020565 803.783 13.2906 1.79332e-05 30.5809
1737 0.020583 803.891 13.305 1.79332e-05 30.5685
1738 0.0206009 803.998 13.3194 1.79332e-05 30.556
1739 0.0206188 804.105 13.3339 1.79332e-05 30.5435
1740 0.0206368 804.213 13.3483 1.79332e-05 30.5311
1741 0.0206547 804.32 13.3627 1.79332e-05 30.5187
1742 0.0206726 804.427 13.3771 1.79332e-05 30.5063
1743 0.0206906 804.534 13.3916 1.79332e-05 30.4939
1744 0.0207085 804.641 13.406 1.79332e-05 30.4815
1745 0.0207264 804.747 13.4204 1.79332e-05 30.4691
1746 0.0207444 804.854 13.4349 1.79332e-05 30.4568
1747 0.0207623 804.96 13.4493 1.79332e-05 30.4444
1748 0.0207802 805.067 13.4637 1.79332e-05 30.4321
1749 0.0207982 805.173 13.4782 1.79332e-05 30.4198
1750 0.0208161 805.279 13.4926 1.79332e-05 30.4075
1751 0.020834 805.386 13.507 1.79332e-05 30.3952
1752 0.020852 805.492 13.5215 1.79332e-05 30.383
1753 0.0208699 805.598 13.5359 1.79332e-05 30.3707
1754 0.0208878 805.703 13.5504 1.79332e-05 30.3585
1755 0.0209058 805.809 13.5648 1.79332e-05 30.3463
1756 0.0209237 805.915 13.5793 1.79332e-05 30.3341
1757 0.0209416 806.02 13.5937 1.79332e-05 30.3219
1758 0.0209596 806.126 13.6082 1.79332e-05 30.3097
1759 0.0209775 806.231 13.6227 1.79332e-05 30.2976
1760 0.0209954 806.336 13.6371 1.79332e-05 30.2854
1761 0.0210134 806.441 13.6516 1.79332e-05 30.2733
1762 0.0210313 806.546 13.666 1.79332e-05 30.2612
1763 0.0210492 806.651 13.6805 1.79332e-05 30.2491
1764 0.0210672 806.756 13.695 1.79332e-05 30.237
1765 0.0210851 806.861 13.7094 1.79332e-05 30.2249
1766 0.021103 806.966 13.7239 1.79332e-05 30.2128
1767 0.021121 807.07 13.7384 1.79332e-05 30.2008
1768 0.0211389 807.175 13.7529 1.79332e-05 30.1888
1769 0.0211568 807.279 13.7673 1.79332e-05 30.1768
1770 0.0211748 807.383 13.7818 1.79332e-05 30.1648
1771 0.0211927 807.487 13.7963 1.79332e-05 30.1528
1772 0.0212106 807.591 13.8108 1.79332e-05 30.1408
1773 0.0212286 807.695 13.8253 1.79332e-05 30.1288
1774 0.0212465 807.799 13.8397 1.79332e-05 30.1169
1775 0.0212644 807.903 13.8542 1.79332e-05 30.1049
1776 0.0212824 808.007 13.8687 1.79332e-05 30.093
1777 0.0213003 808.11 13.8832 1.79332e-05 30.0811
1778 0.0213182 808.214 13.8977 1.79332e-05 30.0692
1779 0.0213362 808.317 13.9122 1.79332e-05 30.0573
1780 0.0213541 808.42 13.9267 1.79332e-05 30.0455
1781 0.021372 808.523 13.9412 1.79332e-05 30.0336
1782 0.02139 808.626 13.9557 1.79332e-05 30.0218
1783 0.0214079 808.729 13.9702 1.79332e-05 30.01
1784 0.0214258 808.832 13.9847 1.79332e-05 29.9982
1785 0.0214438 808.935 13.9992 1.79332e-05 29.9864
1786 0.0214617 809.038 14.0137 1.79332e-05 29.9746
1787 0.0214796 809.14 14.0282 1.79332e-05 29.9628
1788 0.0214976 809.243 14.0427 1.79332e-05 29.9511
1789 0.0215155 809.345 14.0572 1.79332e-05 29.9393
1790 0.0215334 809.448 14.0718 1.79332e-05 29.9276
1791 0.0215514 809.55 14.0863 1.79332e-05 29.9159
1792 0.0215693 809.652 14.1008 1.79332e-05 29.9042
1793 0.0215872 809.754 14.1153 1.79332e-05 29.8925
1794 0.0216052 809.856 14.1298 1.79332e-05 29.8808
1795 0.0216231 809.958 14.1444 1.79332e-05 29.8691
1796 0.021641 810.06 14.1589 1.79332e-05 29.8575
1797 0.021659 810.161 14.1734 1.79332e-05 29.8458
1798 0.0216769 810.263 14.1879 1.79332e-05 29.8342
1799 0.0216948 810.364 14.2025 1.79332e-05 29.8226
1800 0.0217128 810.466 14.217 1.79332e-05 29.811
1801 0.0217307 810.567 14.2315 1.79332e-05 29.7994
1802 0.0217486 810.668 14.2461 1.79332e-05 29.7879
1803 0.0217666 810.769 14.2606 1.79332e-05 29.7763
1804 0.0217845 810.87 14.2752 1.79332e-05 29.7648
1805 0.0218024 810.971 14.2897 1.79332e-05 29.7532
1806 0.0218204 811.072 14.3042 1.79332e-05 29.7417
1807 0.0218383 811.173 14.3188 1.79332e-05 29.7302
1808 0.0218562 811.273 14.3333 1.79332e-05 29.7187
1809 0.0218742 811.374 14.3479 1.79332e-05 29.7072
1810 0.0218921 811.474 14.3624 1.79332e-05 29.6958
1811 0.02191 811.575 14.377 1.79332e-05 29.6843
1812 0.021928 811.675 14.3916 1.79332e-05 29.6729
1813 0.0219459 811.775 14.4061 1.79332e-05 29.6614
1814 0.0219638 811.875 14.4207 1.79332e-05 29.65
1815 0.0219818 811.975 14.4352 1.97265e-05 29.6386
1816 0.0220015 812.085 14.4512 1.97265e-05 29.6261
1817 0.0220212 812.195 14.4673 1.97265e-05 29.6136
1818 0.0220409 812.304 14.4833 1.97265e-05 29.6011
1819 0.0220607 812.414 14.4993 1.97265e-05 29.5886
1820 0.0220804 812.523 14.5153 1.97265e-05 29.5761
1821 0.0221001 812.633 14.5314 1.97265e-05 29.5637
1822 0.0221198 812.742 14.5474 1.97265e-05 29.5512
1823 0.0221396 812.851 14.5634 1.97265e-05 29.5388
1824 0.0221593 812.96 14.5795 1.97265e-05 29.5264
1825 0.022179 813.069 14.5955 1.97265e-05 29.514
1826 0.0221988 813.178 14.6115 1.97265e-05 29.5016
1827 0.0222185 813.286 14.6276 1.97265e-05 29.4892
1828 0.0222382 813.395 14.6436 1.97265e-05 29.4769
1829 0.0222579 813.503 14.6597 1.97265e-05 29.4646
1830 0.0222777 813.612 14.6757 1.97265e-05 29.4522
1831 0.0222974 813.72 14.6918 1.97265e-05 29.4399
1832 0.0223171 813.828 14.7078 1.97265e-05 29.4277
1833 0.0223368 813.936 14.7239 1.97265e-05 29.4154
1834 0.0223566 814.044 14.7399 1.97265e-05 29.4031
1835 0.0223763 814.152 14.756 1.97265e-05 29.3909
1836 0.022396 814.259 14.7721 1.97265e-05 29.3786
1837 0.0224157 814.367 14.7881 1.97265e-05 29.3664
1838 0.0224355 814.475 14.8042 1.97265e-05 29.3542
1839 0.0224552 814.582 14.8203 1.97265e-05 29.342
1840 0.0224749 814.689 14.8363 1.97265e-05 29.3299
1841 0.0224946 814.796 14.8524 1.97265e-05 29.3177
1842 0.0225144 814.903 14.8685 1.97265e-05 29.3056
1843 0.0225341 815.01 14.8846 1.97265e-05 29.2934
1844 0.0225538 815.117 14.9006 1.97265e-05 29.2813
1845 0.0225736 815.224 14.9167 1.97265e-05 29.2692
1846 0.0225933 815.331 14.9328 1.97265e-05 29.2571
1847 0.022613 815.437 14.9489 1.97265e-05 29.2451
1848 0.0226327 815.544 14.965 1.97265e-05 29.233
1849 0.0226525 815.65 14.9811 1.97265e-05 29.221
1850 0.0226722 815.756 14.9971 1.97265e-05 29.2089
1851 0.0226919 815.862 15.0132 1.97265e-05 29.1969
1852 0.0227116 815.968 15.0293 1.97265e-05 29.1849
1853 0.0227314 816.074 15.0454 1.97265e-05 29.1729
1854 0.0227511 816.18 15.0615 1.97265e-05 29.1609
1855 0.0227708 816.286 15.0776 1.97265e-05 29.149
1856 0.0227905 816.391 15.0937 1.97265e-05 29.137
1857 0.0228103 816.497 15.1098 1.97265e-05 29.1251
1858 0.02283 816.602 15.126 1.97265e-05 29.1132
1859 0.0228497 816.707 15.1421 1.97265e-05 29.1013
1860 0.0228695 816.812 15.1582 1.97265e-05 29.0894
1861 0.0228892 816.918 15.1743 1.97265e-05 29.0775
1862 0.0229089 817.022 15.1904 1.97265e-05 29.0657
1863 0.0229286 817.127 15.2065 1.97265e-05 29.0538
1864 0.0229484 817.232 15.2226 1.97265e-05 29.042
1865 0.0229681 817.337 15.2388 1.97265e-05 29.0301
1866 0.0229878 817.441 15.2549 1.97265e-05 29.0183
1867 0.0230075 817.546 15.271 1.97265e-05 29.0065
1868 0.0230273 817.65 15.2871 1.97265e-05 28.9948
1869 0.023047 817.754 15.3033 1.97265e-05 28.983
1870 0.0230667 817.859 15.3194 1.97265e-05 28.9712
1871 0.0230864 817.963 15.3355 1.97265e-05 28.9595
1872 0.0231062 818.066 15.3517 1.97265e-05 28.9478
1873 0.0231259 818.17 15.3678 1.97265e-05 28.9361
1874 0.0231456 818.274 15.384 1.97265e-05 28.9244
1875 0.0231654 818.378 15.4001 1.97265e-05 28.9127
1876 0.0231851 818.481 15.4162 1.97265e-05 28.901
1877 0.0232048 818.585 15.4324 1.97265e-05 28.8893
1878 0.0232245 818.688 15.4485 1.97265e-05 28.8777
1879 0.0232443 818.791 15.4647 1.97265e-05 28.8661
1880 0.023264 818.894 15.4808 1.97265e-05 28.8544
1881 0.0232837 818.997 15.497 1.97265e-05 28.8428
1882 0.0233034 819.1 15.5132 1.97265e-05 28.8312
1883 0.0233232 819.203 15.5293 1.97265e-05 28.8197
1884 0.0233429 819.306 15.5455 1.97265e-05 28.8081
1885 0.0233626 819.409 15.5616 1.97265e-05 28.7965
1886 0.0233823 819.511 15.5778 1.97265e-05 28.785
1887 0.0234021 819.614 15.594 1.97265e-05 28.7735
1888 0.0234218 819.716 15.6101 1.97265e-05 28.762
1889 0.0234415 819.818 15.6263 1.97265e-05 28.7505
1890 0.0234612 819.92 15.6425 1.97265e-05 28.739
1891 0.023481 820.022 15.6587 1.97265e-05 28.7275
1892 0.0235007 820.124 15.6748 1.97265e-05 28.716
1893 0.0235204 820.226 15.691 1.97265e-05 28.7046
1894 0.0235402 820.328 15.7072 1.97265e-05 28.6931
1895 0.0235599 820.429 15.7234 1.97265e-05 28.6817
1896 0.0235796 820.531 15.7396 1.97265e-05 28.6703
1897 0.0235993 820.632 15.7558 1.97265e-05 28.6589
1898 0.0236191 820.734 15.7719 1.97265e-05 28.6475
1899 0.0236388 820.835 15.7881 1.97265e-05 28.6361
1900 0.0236585 820.936 15.8043 1.97265e-05 28.6248
1901 0.0236782 821.037 15.8205 1.97265e-05 28.6134
1902 0.023698 821.138 15.8367 1.97265e-05 28.6021
1903 0.0237177 821.239 15.8529 1.97265e-05 28.5908
1904 0.0237374 821.34 15.8691 1.97265e-05 28.5795
1905 0.0237571 821.441 15.8853 1.97265e-05 28.5682
1906 0.0237769 821.541 15.9015 1.97265e-05 28.5569
1907 0.0237966 821.642 15.9177 1.97265e-05 28.5456
1908 0.0238163 821.742 15.9339 1.97265e-05 28.5343
1909 0.0238361 821.842 15.9502 1.97265e-05 28.5231
1910 0.0238558 821.943 15.9664 1.97265e-05 28.5119
1911 0.0238755 822.043 15.9826 1.97265e-05 28.5006
1912 0.0238952 822.143 15.9988 1.97265e-05 28.4894
1913 0.023915 822.243 16.015 2.16991e-05 28.4782
1914 0.0239367 822.352 16.0329 2.16991e-05 28.4659
1915 0.0239584 822.462 16.0507 2.16991e-05 28.4536
1916 0.0239801 822.572 16.0686 2.16991e-05 28.4414
1917 0.0240018 822.681 16.0864 2.16991e-05 28.4291
1918 0.0240235 822.79 16.1043 2.16991e-05 28.4169
1919 0.0240452 822.9 16.1221 2.16991e-05 28.4046
1920 0.0240669 823.009 16.14 2.16991e-05 28.3924
1921 0.0240886 823.118 16.1578 2.16991e-05 28.3802
1922 0.0241102 823.227 16.1757 2.16991e-05 28.368
1923 0.0241319 823.335 16.1936 2.16991e-05 28.3559
1924 0.0241536 823.444 16.2114 2.16991e-05 28.3437
1925 0.0241753 823.552 16.2293 2.16991e-05 28.3316
1926 0.024197 823.661 16.2472 2.16991e-05 28.3194
1927 0.0242187 823.769 16.265 2.16991e-05 28.3073
1928 0.0242404 823.877 16.2829 2.16991e-05 28.2952
1929 0.0242621 823.985 16.3008 2.16991e-05 28.2831
1930 0.0242838 824.093 16.3187 2.16991e-05 28.2711
1931 0.0243055 824.201 16.3366 2.16991e-05 28.259
1932 0.0243272 824.309 16.3544 2.16991e-05 28.247
1933 0.0243489 824.417 16.3723 2.16991e-05 28.2349
1934 0.0243706 824.524 16.3902 2.16991e-05 28.2229
1935 0.0243923 824.632 16.4081 2.16991e-05 28.2109
1936 0.024414 824.739 16.426 2.16991e-05 28.1989
1937 0.0244357 824.846 16.4439 2.16991e-05 28.187
1938 0.0244574 824.953 16.4618 2.16991e-05 28.175
1939 0.0244791 825.06 16.4797 2.16991e-05 28.1631
1940 0.0245008 825.167 16.4976 2.16991e-05 28.1511
1941 0.0245225 825.274 16.5155 2.16991e-05 28.1392
1942 0.0245442 825.38 16.5334 2.16991e-05 28.1273
1943 0.0245659 825.487 16.5513 2.16991e-05 28.1154
1944 0.0245876 825.593 16.5693 2.16991e-05 28.1036
1945 0.0246093 825.7 16.5872 2.16991e-05 28.0917
1946 0.024631 825.806 16.6051 2.16991e-05 28.0799
1947 0.0246527 825.912 16.623 2.16991e-05 28.068
1948 0.0246744 826.018 16.6409 2.16991e-05 28.0562
1949 0.0246961 826.124 16.6589 2.16991e-05 28.0444
1950 0.0247178 826.229 16.6768 2.16991e-05 28.0326
1951 0.0247395 826.335 16.6947 2.16991e-05 28.0209
1952 0.0247612 826.441 16.7126 2.16991e-05 28.0091
1953 0.0247829 826.546 16.7306 2.16991e-05 27.9973
1954 0.0248046 826.651 16.7485 2.16991e-05 27.9856
1955 0.0248263 826.757 16.7665 2.16991e-05 27.9739
1956 0.024848 826.862 16.7844 2.16991e-05 27.9622
1957 0.0248697 826.967 16.8023 2.16991e-05 27.9505
1958 0.0248914 827.072 16.8203 2.16991e-05 27.9388
1959 0.0249131 827.176 16.8382 2.16991e-05 27.9271
1960 0.0249348 827.281 16.8562 2.16991e-05 27.9155
1961 0.0249565 827.386 16.8741 2.16991e-05 27.9038
1962 0.0249782 827.49 16.8921 2.16991e-05 27.8922
1963 0.0249999 827.594 16.91 2.16991e-05 27.8806
1964 0.0250216 827.699 16.928 2.16991e-05 27.869
1965 0.0250433 827.803 16.946 2.16991e-05 27.8574
1966 0.025065 827.907 16.9639 2.16991e-05 27.8458
1967 0.0250867 828.011 16.9819 2.16991e-05 27.8343
1968 0.0251084 828.115 16.9999 2.16991e-05 27.8227
1969 0.0251301 828.218 17.0178 2.16991e-05 27.8112
1970 0.0251518 828.322 17.0358 2.16991e-05 27.7997
1971 0.0251735 828.425 17.0538 2.16991e-05 27.7882
1972 0.0251952 828.529 17.0718 2.16991e-05 27.7767
1973 0.0252169 828.632 17.0897 2.16991e-05 27.7652
1974 0.0252386 828.735 17.1077 2.16991e-05 27.7537
1975 0.0252603 828.838 17.1257 2.16991e-05 27.7423
1976 0.025282 828.941 17.1437 2.16991e-05 27.7308
1977 0.0253037 829.044 17.1617 2.16991e-05 27.7194
1978 0.0253254 829.147 17.1797 2.16991e-05 27.708
1979 0.0253471 829.25 17.1977 2.16991e-05 27.6966
1980 0.0253688 829.352 17.2157 2.16991e-05 27.6852
1981 0.0253905 829.455 17.2337 2.16991e-05 27.6738
1982 0.0254122 829.557 17.2517 2.16991e-05 27.6625
1983 0.0254339 829.659 17.2697 2.16991e-05 27.6511
1984 0.0254556 829.762 17.2877 2.16991e-05 27.6398
1985 0.0254773 829.864 17.3057 2.16991e-05 27.6284
1986 0.025499 829.966 17.3237 2.16991e-05 27.6171
1987 0.0255207 830.067 17.3417 2.16991e-05 27.6058
1988 0.0255424 830.169 17.3597 2.16991e-05 27.5945
1989 0.0255641 830.271 17.3777 2.16991e-05 27.5833
1990 0.0255858 830.372 17.3957 2.16991e-05 27.572
1991 0.0256075 830.474 17.4137 2.16991e-05 27.5608
1992 0.0256292 830.575 17.4318 2.16991e-05 27.5495
1993 0.0256509 830.676 17.4498 2.16991e-05 27.5383
1994 0.0256726 830.777 17.4678 2.16991e-05 27.5271
1995 0.0256943 830.878 17.4858 2.16991e-05 27.5159
1996 0.025716 830.979 17.5039 2.16991e-05 27.5047
1997 0.0257377 831.08 17.5219 2.16991e-05 27.4935
1998 0.0257594 831.181 17.5399 2.16991e-05 27.4824
1999 0.0257811 831.282 17.558 2.16991e-05 27.4712
2000 0.0258028 831.382 17.576 2.16991e-05 27.4601
2001 0.0258245 831.483 17.5941 2.16991e-05 27.4489
2002 0.0258462 831.583 17.6121 2.16991e-05 27.4378
2003 0.0258679 831.683 17.6302 2.16991e-05 27.4267
2004 0.0258896 831.783 17.6482 2.16991e-05 27.4156
2005 0.0259113 831.883 17.6663 2.16991e-05 27.4046
2006 0.025933 831.983 17.6843 2.38691e-05 27.3935
2007 0.0259568 832.093 17.7042 2.38691e-05 27.3813
2008 0.0259807 832.203 17.724 2.38691e-05 27.3692
2009 0.0260046 832.312 17.7439 2.38691e-05 27.3571
2010 0.0260285 832.422 17.7638 2.38691e-05 27.345
2011 0.0260523 832.531 17.7836 2.38691e-05 27.3329
2012 0.0260762 832.64 17.8035 2.38691e-05 27.3208
2013 0.0261001 832.749 17.8234 2.38691e-05 27.3087
2014 0.0261239 832.858 17.8433 2.38691e-05 27.2967
2015 0.0261478 832.967 17.8631 2.38691e-05 27.2846
2016 0.0261717 833.076 17.883 2.38691e-05 27.2726
2017 0.0261955 833.184 17.9029 2.38691e-05 27.2606
2018 0.0262194 833.293 17.9228 2.38691e-05 27.2486
2019 0.0262433 833.401 17.9427 2.38691e-05 27.2366
2020 0.0262671 833.509 17.9626 2.38691e-05 27.2246
2021 0.026291 833.618 17.9825 2.38691e-05 27.2127
2022 0.0263149 833.726 18.0024 2.38691e-05 27.2008
2023 0.0263388 833.833 18.0223 2.38691e-05 27.1888
2024 0.0263626 833.941 18.0422 2.38691e-05 27.1769
2025 0.0263865 834.049 18.0621 2.38691e-05 27.165
2026 0.0264104 834.156 18.082 2.38691e-05 27.1531
2027 0.0264342 834.264 18.1019 2.38691e-05 27.1413
2028 0.0264581 834.371 18.1218 2.38691e-05 27.1294
2029 0.026482 834.478 18.1417 2.38691e-05 27.1176
2030 0.0265058 834.585 18.1617 2.38691e-05 27.1058
2031 0.0265297 834.692 18.1816 2.38691e-05 27.0939
2032 0.0265536 834.799 18.2015 2.38691e-05 27.0821
2033 0.0265774 834.906 18.2214 2.38691e-05 27.0704
2034 0.0266013 835.013 18.2414 2.38691e-05 27.0586
2035 0.0266252 835.119 18.2613 2.38691e-05 27.0468
2036 0.026649 835.226 18.2812 2.38691e-05 27.0351
2037 0.0266729 835.332 18.3012 2.38691e-05 27.0234
2038 0.0266968 835.438 18.3211 2.38691e-05 27.0117
2039 0.0267207 835.544 18.3411 2.38691e-05 27
2040 0.0267445 835.65 18.361 2.38691e-05 26.9883
2041 0.0267684 835.756 18.3809 2.38691e-05 26.9766
2042 0.0267923 835.861 18.4009 2.38691e-05 26.9649
2043 0.0268161 835.967 18.4208 2.38691e-05 26.9533
2044 0.02684 836.072 18.4408 2.38691e-05 26.9417
2045 0.0268639 836.178 18.4608 2.38691e-05 26.93
2046 0.0268877 836.283 18.4807 2.38691e-05 26.9184
2047 0.0269116 836.388 18.5007 2.38691e-05 26.9068
2048 0.0269355 836.493 18.5206 2.38691e-05 26.8953
2049 0.0269593 836.598 18.5406 2.38691e-05 26.8837
2050 0.0269832 836.703 18.5606 2.38691e-05 26.8722
2051 0.0270071 836.808 18.5806 2.38691e-05 26.8606
2052 0.027031 836.912 18.6005 2.38691e-05 26.8491
2053 0.0270548 837.017 18.6205 2.38691e-05 26.8376
2054 0.0270787 837.121 18.6405 2.38691e-05 26.8261
2055 0.0271026 837.225 18.6605 2.38691e-05 26.8146
2056 0.0271264 837.329 18.6805 2.38691e-05 26.8031
2057 0.0271503 837.433 18.7004 2.38691e-05 26.7917
2058 0.0271742 837.537 18.7204 2.38691e-05 26.7802
2059 0.027198 837.641 18.7404 2.38691e-05 26.7688
2060 0.0272219 837.745 18.7604 2.38691e-05 26.7574
2061 0.0272458 837.848 18.7804 2.38691e-05 26.746
2062 0.0272696 837.952 18.8004 2.38691e-05 26.7346
2063 0.0272935 838.055 18.8204 2.38691e-05 26.7232
2064 0.0273174 838.158 18.8404 2.38691e-05 26.7118
2065 0.0273413 838.262 18.8604 2.38691e-05 26.7005
2066 0.0273651 838.365 18.8804 2.38691e-05 26.6892
2067 0.027389 838.467 18.9005 2.38691e-05 26.6778
2068 0.0274129 838.57 18.9205 2.38691e-05 26.6665
2069 0.0274367 838.673 18.9405 2.38691e-05 26.6552
2070 0.0274606 838.776 18.9605 2.38691e-05 26.6439
2071 0.0274845 838.878 18.9805 2.38691e-05 26.6326
2072 0.0275083 838.98 19.0006 2.38691e-05 26.6214
2073 0.0275322 839.083 19.0206 2.38691e-05 26.6101
2074 0.0275561 839.185 19.0406 2.38691e-05 26.5989
2075 0.0275799 839.287 19.0606 2.38691e-05 26.5877
2076 0.0276038 839.389 19.0807 2.38691e-05 26.5765
2077 0.0276277 839.491 19.1007 2.38691e-05 26.5653
2078 0.0276516 839.592 19.1207 2.38691e-05 26.5541
2079 0.0276754 839.694 19.1408 2.38691e-05 26.5429
2080 0.0276993 839.796 19.1608 2.38691e-05 26.5318
2081 0.0277232 839.897 19.1809 2.38691e-05 26.5206
2082 0.027747 839.998 19.2009 2.38691e-05 26.5095
2083 0.0277709 840.099 19.221 2.38691e-05 26.4984
2084 0.0277948 840.2 19.241 2.38691e-05 26.4872
2085 0.0278186 840.301 19.2611 2.38691e-05 26.4761
2086 0.0278425 840.402 19.2811 2.38691e-05 26.4651
2087 0.0278664 840.503 19.3012 2.38691e-05 26.454
2088 0.0278902 840.604 19.3213 2.38691e-05 26.4429
2089 0.0279141 840.704 19.3413 2.38691e-05 26.4319
2090 0.027938 840.805 19.3614 2.38691e-05 26.4208
2091 0.0279618 840.905 19.3815 2.38691e-05 26.4098
2092 0.0279857 841.005 19.4016 2.38691e-05 26.3988
2093 0.0280096 841.105 19.4216 2.38691e-05 26.3878
2094 0.0280335 841.205 19.4417 2.38691e-05 26.3768
2095 0.0280573 841.305 19.4618 2.6256e-05 26.3659
2096 0.0280836 841.415 19.4839 2.6256e-05 26.3538
2097 0.0281098 841.525 19.506 2.6256e-05 26.3418
2098 0.0281361 841.634 19.5281 2.6256e-05 26.3297
2099 0.0281623 841.744 19.5502 2.6256e-05 26.3177
2100 0.0281886 841.853 19.5723 2.6256e-05 26.3057
2101 0.0282149 841.962 19.5944 2.6256e-05 26.2937
2102 0.0282411 842.071 19.6165 2.6256e-05 26.2818
2103 0.0282674 842.18 19.6386 2.6256e-05 26.2698
2104 0.0282936 842.289 19.6607 2.6256e-05 26.2579
2105 0.0283199 842.398 19.6828 2.6256e-05 26.246
2106 0.0283461 842.506 19.7049 2.6256e-05 26.234
2107 0.0283724 842.615 19.7271 2.6256e-05 26.2222
2108 0.0283987 842.723 19.7492 2.6256e-05 26.2103
2109 0.0284249 842.831 19.7713 2.6256e-05 26.1984
2110 0.0284512 842.939 19.7934 2.6256e-05 26.1866
2111 0.0284774 843.047 19.8156 2.6256e-05 26.1747
2112 0.0285037 843.155 19.8377 2.6256e-05 26.1629
2113 0.0285299 843.263 19.8599 2.6256e-05 26.1511
2114 0.0285562 843.37 19.882 2.6256e-05 26.1393
2115 0.0285824 843.478 19.9041 2.6256e-05 26.1275
2116 0.0286087 843.585 19.9263 2.6256e-05 26.1157
2117 0.028635 843.692 19.9484 2.6256e-05 26.104
2118 0.0286612 843.799 19.9706 2.6256e-05 26.0923
2119 0.0286875 843.906 19.9927 2.6256e-05 26.0805
2120 0.0287137 844.013 20.0149 2.6256e-05 26.0688
2121 0.02874 844.12 20.0371 2.6256e-05 26.0571
2122 0.0287662 844.226 20.0592 2.6256e-05 26.0454
2123 0.0287925 844.333 20.0814 2.6256e-05 26.0338
2124 0.0288187 844.439 20.1036 2.6256e-05 26.0221
2125 0.028845 844.545 20.1257 2.6256e-05 26.0105
2126 0.0288713 844.651 20.1479 2.6256e-05 25.9988
2127 0.0288975 844.757 20.1701 2.6256e-05 25.9872
2128 0.0289238 844.863 20.1923 2.6256e-05 25.9756
2129 0.02895 844.969 20.2145 2.6256e-05 25.9641
2130 0.0289763 845.075 20.2367 2.6256e-05 25.9525
2131 0.0290025 845.18 20.2588 2.6256e-05 25.9409
2132 0.0290288 845.285 20.281 2.6256e-05 25.9294
2133 0.0290551 845.391 20.3032 2.6256e-05 25.9179
2134 0.0290813 845.496 20.3254 2.6256e-05 25.9063
2135 0.0291076 845.601 20.3476 2.6256e-05 25.8948
2136 0.0291338 845.706 20.3698 2.6256e-05 25.8833
2137 0.0291601 845.811 20.392 2.6256e-05 25.8719
2138 0.0291863 845.915 20.4142 2.6256e-05 25.8604
2139 0.0292126 846.02 20.4365 2.6256e-05 25.849
2140 0.0292388 846.124 20.4587 2.6256e-05 25.8375
2141 0.0292651 846.229 20.4809 2.6256e-05 25.8261
2142 0.0292914 846.333 20.5031 2.6256e-05 25.8147
2143 0.0293176 846.437 20.5253 2.6256e-05 25.8033
2144 0.0293439 846.541 20.5476 2.6256e-05 25.7919
2145 0.0293701 846.645 20.5698 2.6256e-05 25.7805
2146 0.0293964 846.749 20.592 2.6256e-05 25.7692
2147 0.0294226 846.852 20.6142 2.6256e-05 25.7579
2148 0.0294489 846.956 20.6365 2.6256e-05 25.7465
2149 0.0294751 847.059 20.6587 2.6256e-05 25.7352
2150 0.0295014 847.162 20.681 2.6256e-05 25.7239
2151 0.0295277 847.266 20.7032 2.6256e-05 25.7126
2152 0.0295539 847.369 20.7255 2.6256e-05 25.7013
2153 0.0295802 847.472 20.7477 2.6256e-05 25.6901
2154 0.0296064 847.574 20.77 2.6256e-05 25.6788
2155 0.0296327 847.677 20.7922 2.6256e-05 25.6676
2156 0.0296589 847.78 20.8145 2.6256e-05 25.6564
2157 0.0296852 847.882 20.8367 2.6256e-05 25.6452
2158 0.0297115 847.985 20.859 2.6256e-05 25.634
2159 0.0297377 848.087 20.8813 2.6256e-05 25.6228
2160 0.029764 848.189 20.9035 2.6256e-05 25.6116
2161 0.0297902 848.291 20.9258 2.6256e-05 25.6005
2162 0.0298165 848.393 20.9481 2.6256e-05 25.5893
2163 0.0298427 848.495 20.9704 2.6256e-05 25.5782
2164 0.029869 848.596 20.9926 2.6256e-05 25.5671
2165 0.0298952 848.698 21.0149 2.6256e-05 25.5559
2166 0.0299215 848.799 21.0372 2.6256e-05 25.5449
2167 0.0299478 848.901 21.0595 2.6256e-05 25.5338
2168 0.029974 849.002 21.0818 2.6256e-05 25.5227
2169 0.0300003 849.103 21.1041 2.6256e-05 25.5117
2170 0.0300265 849.204 21.1264 2.6256e-05 25.5006
2171 0.0300528 849.305 21.1487 2.6256e-05 25.4896
2172 0.030079 849.406 21.171 2.6256e-05 25.4786
2173 0.0301053 849.507 21.1933 2.6256e-05 25.4676
2174 0.0301315 849.607 21.2156 2.6256e-05 25.4566
2175 0.0301578 849.708 21.2379 2.6256e-05 25.4456
2176 0.0301841 849.808 21.2602 2.6256e-05 25.4346
2177 0.0302103 849.908 21.2825 2.6256e-05 25.4237
2178 0.0302366 850.008 21.3048 2.6256e-05 25.4127
2179 0.0302628 850.108 21.3271 2.6256e-05 25.4018
2180 0.0302891 850.208 21.3495 2.88816e-05 25.3909
2181 0.030318 850.318 21.374 2.88816e-05 25.3789
2182 0.0303468 850.428 21.3986 2.88816e-05 25.3669
2183 0.0303757 850.537 21.4231 2.88816e-05 25.3549
2184 0.0304046 850.647 21.4477 2.88816e-05 25.343
2185 0.0304335 850.756 21.4723 2.88816e-05 25.331
2186 0.0304624 850.865 21.4969 2.88816e-05 25.3191
2187 0.0304913 850.974 21.5214 2.88816e-05 25.3072
2188 0.0305201 851.083 21.546 2.88816e-05 25.2953
2189 0.030549 851.192 21.5706 2.88816e-05 25.2834
2190 0.0305779 851.3 21.5952 2.88816e-05 25.2716
2191 0.0306068 851.409 21.6198 2.88816e-05 25.2597
2192 0.0306357 851.517 21.6444 2.88816e-05 25.2479
2193 0.0306645 851.625 21.669 2.88816e-05 25.2361
2194 0.0306934 851.733 21.6935 2.88816e-05 25.2243
2195 0.0307223 851.841 21.7182 2.88816e-05 25.2125
2196 0.0307512 851.949 21.7428 2.88816e-05 25.2007
2197 0.0307801 852.057 21.7674 2.88816e-05 25.189
2198 0.0308089 852.164 21.792 2.88816e-05 25.1772
2199 0.0308378 852.272 21.8166 2.88816e-05 25.1655
2200 0.0308667 852.379 21.8412 2.88816e-05 25.1538
2201 0.0308956 852.486 21.8658 2.88816e-05 25.1421
2202 0.0309245 852.593 21.8904 2.88816e-05 25.1304
2203 0.0309534 852.7 21.9151 2.88816e-05 25.1187
2204 0.0309822 852.807 21.9397 2.88816e-05 25.1071
2205 0.0310111 852.914 21.9643 2.88816e-05 25.0954
2206 0.03104 853.02 21.989 2.88816e-05 25.0838
2207 0.0310689 853.127 22.0136 2.88816e-05 25.0722
2208 0.0310978 853.233 22.0382 2.88816e-05 25.0606
2209 0.0311266 853.339 22.0629 2.88816e-05 25.049
2210 0.0311555 853.445 22.0875 2.88816e-05 25.0374
2211 0.0311844 853.551 22.1122 2.88816e-05 25.0258
2212 0.0312133 853.657 22.1368 2.88816e-05 25.0143
2213 0.0312422 853.763 22.1615 2.88816e-05 25.0028
2214 0.0312711 853.868 22.1862 2.88816e-05 24.9912
2215 0.0312999 853.973 22.2108 2.88816e-05 24.9797
2216 0.0313288 854.079 22.2355 2.88816e-05 24.9683
2217 0.0313577 854.184 22.2602 2.88816e-05 24.9568
2218 0.0313866 854.289 22.2848 2.88816e-05 24.9453
2219 0.0314155 854.394 22.3095 2.88816e-05 24.9339
2220 0.0314443 854.499 22.3342 2.88816e-05 24.9224
2221 0.0314732 854.603 22.3589 2.88816e-05 24.911
2222 0.0315021 854.708 22.3835 2.88816e-05 24.8996
2223 0.031531 854.812 22.4082 2.88816e-05 24.8882
2224 0.0315599 854.917 22.4329 2.88816e-05 24.8768
2225 0.0315888 855.021 22.4576 2.88816e-05 24.8655
2226 0.0316176 855.125 22.4823 2.88816e-05 24.8541
2227 0.0316465 855.229 22.507 2.88816e-05 24.8428
2228 0.0316754 855.333 22.5317 2.88816e-05 24.8314
2229 0.0317043 855.436 22.5564 2.88816e-05 24.8201
2230 0.0317332 855.54 22.5811 2.88816e-05 24.8088
2231 0.031762 855.643 22.6058 2.88816e-05 24.7976
2232 0.0317909 855.747 22.6305 2.88816e-05 24.7863
2233 0.0318198 855.85 22.6553 2.88816e-05 24.775
2234 0.0318487 855.953 22.68 2.88816e-05 24.7638
2235 0.0318776 856.056 22.7047 2.88816e-05 24.7526
2236 0.0319064 856.159 22.7294 2.88816e-05 24.7413
2237 0.0319353 856.261 22.7542 2.88816e-05 24.7301
2238 0.0319642 856.364 22.7789 2.88816e-05 24.7189
2239 0.0319931 856.467 22.8036 2.88816e-05 24.7078
2240 0.032022 856.569 22.8284 2.88816e-05 24.6966
2241 0.0320509 856.671 22.8531 2.88816e-05 24.6854
2242 0.0320797 856.773 22.8778 2.88816e-05 24.6743
2243 0.0321086 856.875 22.9026 2.88816e-05 24.6632
2244 0.0321375 856.977 22.9273 2.88816e-05 24.6521
2245 0.0321664 857.079 22.9521 2.88816e-05 24.641
2246 0.0321953 857.181 22.9768 2.88816e-05 24.6299
2247 0.0322241 857.282 23.0016 2.88816e-05 24.6188
2248 0.032253 857.384 23.0264 2.88816e-05 24.6078
2249 0.0322819 857.485 23.0511 2.88816e-05 24.5967
2250 0.0323108 857.586 23.0759 2.88816e-05 24.5857
2251 0.0323397 857.687 23.1007 2.88816e-05 24.5747
2252 0.0323686 857.788 23.1254 2.88816e-05 24.5636
2253 0.0323974 857.889 23.1502 2.88816e-05 24.5527
2254 0.0324263 857.99 23.175 2.88816e-05 24.5417
2255 0.0324552 858.09 23.1998 2.88816e-05 24.5307
2256 0.0324841 858.191 23.2246 2.88816e-05 24.5197
2257 0.032513 858.291 23.2494 2.88816e-05 24.5088
2258 0.0325418 858.391 23.2741 2.88816e-05 24.4979
2259 0.0325707 858.491 23.2989 2.88816e-05 24.487
2260 0.0325996 858.591 23.3237 2.88816e-05 24.4761
2261 0.0326285 858.691 23.3485 3.17697e-05 24.4652
2262 0.0326603 858.801 23.3758 3.17697e-05 24.4532
2263 0.032692 858.911 23.4031 3.17697e-05 24.4412
2264 0.0327238 859.02 23.4304 3.17697e-05 24.4293
2265 0.0327556 859.13 23.4577 3.17697e-05 24.4174
2266 0.0327873 859.239 23.485 3.17697e-05 24.4055
2267 0.0328191 859.348 23.5123 3.17697e-05 24.3936
2268 0.0328509 859.457 23.5396 3.17697e-05 24.3817
2269 0.0328826 859.566 23.5669 3.17697e-05 24.3698
2270 0.0329144 859.674 23.5942 3.17697e-05 24.358
2271 0.0329462 859.783 23.6215 3.17697e-05 24.3462
2272 0.032978 859.891 23.6488 3.17697e-05 24.3344
2273 0.0330097 859.999 23.6761 3.17697e-05 24.3226
2274 0.0330415 860.108 23.7035 3.17697e-05 24.3108
2275 0.0330733 860.216 23.7308 3.17697e-05 24.299
2276 0.033105 860.323 23.7581 3.17697e-05 24.2872
2277 0.0331368 860.431 23.7855 3.17697e-05 24.2755
2278 0.0331686 860.539 23.8128 3.17697e-05 24.2638
2279 0.0332003 860.646 23.8401 3.17697e-05 24.2521
2280 0.0332321 860.753 23.8675 3.17697e-05 24.2404
2281 0.0332639 860.861 23.8948 3.17697e-05 24.2287
2282 0.0332957 860.968 23.9222 3.17697e-05 24.217
2283 0.0333274 861.074 23.9495 3.17697e-05 24.2054
2284 0.0333592 861.181 23.9769 3.17697e-05 24.1937
2285 0.033391 861.288 24.0043 3.17697e-05 24.1821
2286 0.0334227 861.394 24.0316 3.17697e-05 24.1705
2287 0.0334545 861.501 24.059 3.17697e-05 24.1589
2288 0.0334863 861.607 24.0864 3.17697e-05 24.1473
2289 0.033518 861.713 24.1137 3.17697e-05 24.1358
2290 0.0335498 861.819 24.1411 3.17697e-05 24.1242
2291 0.0335816 861.925 24.1685 3.17697e-05 24.1127
2292 0.0336133 862.031 24.1959 3.17697e-05 24.1011
2293 0.0336451 862.136 24.2233 3.17697e-05 24.0896
2294 0.0336769 862.242 24.2507 3.17697e-05 24.0781
2295 0.0337087 862.347 24.278 3.17697e-05 24.0667
2296 0.0337404 862.452 24.3054 3.17697e-05 24.0552
2297 0.0337722 862.557 24.3328 3.17697e-05 24.0437
2298 0.033804 862.662 24.3603 3.17697e-05 24.0323
2299 0.0338357 862.767 24.3877 3.17697e-05 24.0209
2300 0.0338675 862.872 24.4151 3.17697e-05 24.0095
2301 0.0338993 862.976 24.4425 3.17697e-05 23.9981
2302 0.033931 863.08 24.4699 3.17697e-05 23.9867
2303 0.0339628 863.185 24.4973 3.17697e-05 23.9753
2304 0.0339946 863.289 24.5248 3.17697e-05 23.964
2305 0.0340264 863.393 24.5522 3.17697e-05 23.9526
2306 0.0340581 863.497 24.5796 3.17697e-05 23.9413
2307 0.0340899 863.601 24.607 3.17697e-05 23.93
2308 0.0341217 863.704 24.6345 3.17697e-05 23.9187
2309 0.0341534 863.808 24.6619 3.17697e-05 23.9074
2310 0.0341852 863.911 24.6894 3.17697e-05 23.8962
2311 0.034217 864.014 24.7168 3.17697e-05 23.8849
2312 0.0342487 864.117 24.7443 3.17697e-05 23.8737
2313 0.0342805 864.22 24.7717 3.17697e-05 23.8624
2314 0.0343123 864.323 24.7992 3.17697e-05 23.8512
2315 0.0343441 864.426 24.8266 3.17697e-05 23.84
2316 0.0343758 864.529 24.8541 3.17697e-05 23.8288
2317 0.0344076 864.631 24.8816 3.17697e-05 23.8177
2318 0.0344394 864.734 24.909 3.17697e-05 23.8065
2319 0.0344711 864.836 24.9365 3.17697e-05 23.7954
2320 0.0345029 864.938 24.964 3.17697e-05 23.7842
2321 0.0345347 865.04 24.9915 3.17697e-05 23.7731
2322 0.0345664 865.142 25.019 3.17697e-05 23.762
2323 0.0345982 865.244 25.0464 3.17697e-05 23.7509
2324 0.03463 865.345 25.0739 3.17697e-05 23.7398
2325 0.0346618 865.447 25.1014 3.17697e-05 23.7288
2326 0.0346935 865.548 25.1289 3.17697e-05 23.7177
2327 0.0347253 865.649 25.1564 3.17697e-05 23.7067
2328 0.0347571 865.75 25.1839 3.17697e-05 23.6956
2329 0.0347888 865.851 25.2114 3.17697e-05 23.6846
2330 0.0348206 865.952 25.2389 3.17697e-05 23.6736
2331 0.0348524 866.053 25.2665 3.17697e-05 23.6626
2332 0.0348841 866.154 25.294 3.17697e-05 23.6517
2333 0.0349159 866.254 25.3215 3.17697e-05 23.6407
2334 0.0349477 866.355 25.349 3.17697e-05 23.6298
2335 0.0349794 866.455 25.3765 3.17697e-05 23.6188
2336 0.0350112 866.555 25.4041 3.17697e-05 23.6079
2337 0.035043 866.655 25.4316 3.17697e-05 23.597
2338 0.0350748 866.755 25.4591 3.49467e-05 23.5861
2339 0.0351097 866.865 25.4894 3.49467e-05 23.5741
2340 0.0351446 866.974 25.5197 3.49467e-05 23.5622
2341 0.0351796 867.084 25.55 3.49467e-05 23.5503
2342 0.0352145 867.193 25.5803 3.49467e-05 23.5383
2343 0.0352495 867.302 25.6106 3.49467e-05 23.5264
2344 0.0352844 867.411 25.6409 3.49467e-05 23.5145
2345 0.0353194 867.52 25.6713 3.49467e-05 23.5027
2346 0.0353543 867.629 25.7016 3.49467e-05 23.4908
2347 0.0353893 867.737 25.7319 3.49467e-05 23.479
2348 0.0354242 867.846 25.7622 3.49467e-05 23.4671
2349 0.0354592 867.954 25.7926 3.49467e-05 23.4553
2350 0.0354941 868.062 25.8229 3.49467e-05 23.4435
2351 0.0355291 868.17 25.8532 3.49467e-05 23.4317
2352 0.035564 868.278 25.8836 3.49467e-05 23.42
2353 0.035599 868.386 25.9139 3.49467e-05 23.4082
2354 0.0356339 868.494 25.9443 3.49467e-05 23.3965
2355 0.0356689 868.601 25.9746 3.49467e-05 23.3848
2356 0.0357038 868.708 26.005 3.49467e-05 23.3731
2357 0.0357387 868.816 26.0353 3.49467e-05 23.3614
2358 0.0357737 868.923 26.0657 3.49467e-05 23.3497
2359 0.0358086 869.029 26.0961 3.49467e-05 23.338
2360 0.0358436 869.136 26.1264 3.49467e-05 23.3264
2361 0.0358785 869.243 26.1568 3.49467e-05 23.3148
2362 0.0359135 869.349 26.1872 3.49467e-05 23.3031
2363 0.0359484 869.456 26.2176 3.49467e-05 23.2915
2364 0.0359834 869.562 26.248 3.49467e-05 23.28
2365 0.0360183 869.668 26.2784 3.49467e-05 23.2684
2366 0.0360533 869.774 26.3087 3.49467e-05 23.2568
2367 0.0360882 869.88 26.3391 3.49467e-05 23.2453
2368 0.0361232 869.985 26.3695 3.49467e-05 23.2338
2369 0.0361581 870.091 26.4 3.49467e-05 23.2222
2370 0.0361931 870.196 26.4304 3.49467e-05 23.2107
2371 0.036228 870.301 26.4608 3.49467e-05 23.1993
2372 0.0362629 870.406 26.4912 3.49467e-05 23.1878
2373 0.0362979 870.511 26.5216 3.49467e-05 23.1763
2374 0.0363328 870.616 26.552 3.49467e-05 23.1649
2375 0.0363678 870.721 26.5825 3.49467e-05 23.1535
2376 0.0364027 870.825 26.6129 3.49467e-05 23.1421
2377 0.0364377 870.93 26.6433 3.49467e-05 23.1307
2378 0.0364726 871.034 26.6738 3.49467e-05 23.1193
2379 0.0365076 871.138 26.7042 3.49467e-05 23.1079
2380 0.0365425 871.242 26.7347 3.49467e-05 23.0966
2381 0.0365775 871.346 26.7651 3.49467e-05 23.0852
2382 0.0366124 871.45 26.7956 3.49467e-05 23.0739
2383 0.0366474 871.553 26.826 3.49467e-05 23.0626
2384 0.0366823 871.657 26.8565 3.49467e-05 23.0513
2385 0.0367173 871.76 26.8869 3.49467e-05 23.04
2386 0.0367522 871.863 26.9174 3.49467e-05 23.0288
2387 0.0367871 871.966 26.9479 3.49467e-05 23.0175
2388 0.0368221 872.069 26.9783 3.49467e-05 23.0063
2389 0.036857 872.172 27.0088 3.49467e-05 22.9951
2390 0.036892 872.275 27.0393 3.49467e-05 22.9838
2391 0.0369269 872.377 27.0698 3.49467e-05 22.9726
2392 0.0369619 872.48 27.1003 3.49467e-05 22.9615
2393 0.0369968 872.582 27.1308 3.49467e-05 22.9503
2394 0.0370318 872.684 27.1613 3.49467e-05 22.9391
2395 0.0370667 872.786 27.1918 3.49467e-05 22.928
2396 0.0371017 872.888 27.2223 3.49467e-05 22.9169
2397 0.0371366 872.99 27.2528 3.49467e-05 22.9058
2398 0.0371716 873.091 27.2833 3.49467e-05 22.8947
2399 0.0372065 873.193 27.3138 3.49467e-05 22.8836
2400 0.0372415 873.294 27.3443 3.49467e-05 22.8725
2401 0.0372764 873.395 27.3748 3.49467e-05 22.8615
2402 0.0373113 873.496 27.4054 3.49467e-05 22.8504
2403 0.0373463 873.597 27.4359 3.49467e-05 22.8394
2404 0.0373812 873.698 27.4664 3.49467e-05 22.8284
2405 0.0374162 873.799 27.4969 3.49467e-05 22.8174
2406 0.0374511 873.899 27.5275 3.49467e-05 22.8064
2407 0.0374861 874 27.558 3.49467e-05 22.7954
2408 0.037521 874.1 27.5886 3.49467e-05 22.7844
2409 0.037556 874.2 27.6191 3.49467e-05 22.7735
2410 0.0375909 874.3 27.6497 3.49467e-05 22.7626
2411 0.0376259 874.4 27.6802 3.84414e-05 22.7516
2412 0.0376643 874.51 27.7138 3.84414e-05 22.7396
2413 0.0377027 874.62 27.7475 3.84414e-05 22.7277
2414 0.0377412 874.729 27.7811 3.84414e-05 22.7157
2415 0.0377796 874.838 27.8147 3.84414e-05 22.7037
2416 0.0378181 874.948 27.8483 3.84414e-05 22.6918
2417 0.0378565 875.057 27.882 3.84414e-05 22.6799
2418 0.037895 875.165 27.9156 3.84414e-05 22.668
2419 0.0379334 875.274 27.9493 3.84414e-05 22.6561
2420 0.0379718 875.383 27.9829 3.84414e-05 22.6442
2421 0.0380103 875.491 28.0166 3.84414e-05 22.6324
2422 0.0380487 875.599 28.0502 3.84414e-05 22.6206
2423 0.0380872 875.707 28.0839 3.84414e-05 22.6087
2424 0.0381256 875.815 28.1176 3.84414e-05 22.5969
2425 0.038164 875.923 28.1512 3.84414e-05 22.5851
2426 0.0382025 876.031 28.1849 3.84414e-05 22.5734
2427 0.0382409 876.138 28.2186 3.84414e-05 22.5616
2428 0.0382794 876.246 28.2523 3.84414e-05 22.5499
2429 0.0383178 876.353 28.2859 3.84414e-05 22.5381
2430 0.0383563 876.46 28.3196 3.84414e-05 22.5264
2431 0.0383947 876.567 28.3533 3.84414e-05 22.5147
2432 0.0384331 876.674 28.387 3.84414e-05 22.5031
2433 0.0384716 876.78 28.4207 3.84414e-05 22.4914
2434 0.03851 876.887 28.4544 3.84414e-05 22.4797
2435 0.0385485 876.993 28.4881 3.84414e-05 22.4681
2436 0.0385869 877.099 28.5219 3.84414e-05 22.4565
2437 0.0386253 877.205 28.5556 3.84414e-05 22.4449
2438 0.0386638 877.311 28.5893 3.84414e-05 22.4333
2439 0.0387022 877.417 28.623 3.84414e-05 22.4217
2440 0.0387407 877.522 28.6568 3.84414e-05 22.4102
2441 0.0387791 877.628 28.6905 3.84414e-05 22.3986
2442 0.0388175 877.733 28.7242 3.84414e-05 22.3871
2443 0.038856 877.838 28.758 3.84414e-05 22.3756
2444 0.0388944 877.943 28.7917 3.84414e-05 22.3641
2445 0.0389329 878.048 28.8255 3.84414e-05 22.3526
2446 0.0389713 878.153 28.8592 3.84414e-05 22.3412
2447 0.0390098 878.257 28.893 3.84414e-05 22.3297
2448 0.0390482 878.362 28.9268 3.84414e-05 22.3183
2449 0.0390866 878.466 28.9605 3.84414e-05 22.3068
2450 0.0391251 878.57 28.9943 3.84414e-05 22.2954
2451 0.0391635 878.674 29.0281 3.84414e-05 22.2841
2452 0.039202 878.778 29.0619 3.84414e-05 22.2727
2453 0.0392404 878.882 29.0956 3.84414e-05 22.2613
2454 0.0392788 878.985 29.1294 3.84414e-05 22.25
2455 0.0393173 879.089 29.1632 3.84414e-05 22.2386
2456 0.0393557 879.192 29.197 3.84414e-05 22.2273
2457 0.0393942 879.295 29.2308 3.84414e-05 22.216
2458 0.0394326 879.398 29.2646 3.84414e-05 22.2047
2459 0.0394711 879.501 29.2984 3.84414e-05 22.1935
2460 0.0395095 879.604 29.3322 3.84414e-05 22.1822
2461 0.0395479 879.707 29.366 3.84414e-05 22.171
2462 0.0395864 879.809 29.3999 3.84414e-05 22.1597
2463 0.0396248 879.911 29.4337 3.84414e-05 22.1485
2464 0.0396633 880.013 29.4675 3.84414e-05 22.1373
2465 0.0397017 880.115 29.5013 3.84414e-05 22.1261
2466 0.0397401 880.217 29.5352 3.84414e-05 22.115
2467 0.0397786 880.319 29.569 3.84414e-05 22.1038
2468 0.039817 880.421 29.6029 3.84414e-05 22.0927
2469 0.0398555 880.522 29.6367 3.84414e-05 22.0815
2470 0.0398939 880.624 29.6706 3.84414e-05 22.0704
2471 0.0399323 880.725 29.7044 3.84414e-05 22.0593
2472 0.0399708 880.826 29.7383 3.84414e-05 22.0482
2473 0.0400092 880.927 29.7721 3.84414e-05 22.0372
2474 0.0400477 881.028 29.806 3.84414e-05 22.0261
2475 0.0400861 881.128 29.8399 3.84414e-05 22.0151
2476 0.0401246 881.229 29.8737 3.84414e-05 22.004
2477 0.040163 881.329 29.9076 3.84414e-05 21.993
2478 0.0402014 881.43 29.9415 3.84414e-05 21.982
2479 0.0402399 881.53 29.9754 3.84414e-05 21.971
2480 0.0402783 881.63 30.0093 4.22855e-05 21.9601
2481 0.0403206 881.739 30.0466 4.22855e-05 21.948
2482 0.0403629 881.849 30.0838 4.22855e-05 21.936
2483 0.0404052 881.959 30.1211 4.22855e-05 21.924
2484 0.0404475 882.068 30.1584 4.22855e-05 21.9119
2485 0.0404897 882.177 30.1957 4.22855e-05 21.9
2486 0.040532 882.286 30.233 4.22855e-05 21.888
2487 0.0405743 882.395 30.2703 4.22855e-05 21.876
2488 0.0406166 882.504 30.3077 4.22855e-05 21.8641
2489 0.0406589 882.612 30.345 4.22855e-05 21.8522
2490 0.0407012 882.721 30.3823 4.22855e-05 21.8403
2491 0.0407435 882.829 30.4196 4.22855e-05 21.8284
2492 0.0407857 882.937 30.457 4.22855e-05 21.8165
2493 0.040828 883.045 30.4943 4.22855e-05 21.8047
2494 0.0408703 883.153 30.5316 4.22855e-05 21.7928
2495 0.0409126 883.26 30.569 4.22855e-05 21.781
2496 0.0409549 883.368 30.6063 4.22855e-05 21.7692
2497 0.0409972 883.475 30.6437 4.22855e-05 21.7574
2498 0.0410395 883.582 30.6811 4.22855e-05 21.7456
2499 0.0410817 883.689 30.7184 4.22855e-05 21.7339
2500 0.041124 883.796 30.7558 4.22855e-05 21.7222
2501 0.0411663 883.903 30.7932 4.22855e-05 21.7104
2502 0.0412086 884.009 30.8306 4.22855e-05 21.6987
2503 0.0412509 884.115 30.8679 4.22855e-05 21.687
2504 0.0412932 884.222 30.9053 4.22855e-05 21.6754
2505 0.0413355 884.328 30.9427 4.22855e-05 21.6637
2506 0.0413777 884.434 30.9801 4.22855e-05 21.6521
2507 0.04142 884.539 31.0175 4.22855e-05 21.6404
2508 0.0414623 884.645 31.0549 4.22855e-05 21.6288
2509 0.0415046 884.75 31.0923 4.22855e-05 21.6172
2510 0.0415469 884.856 31.1297 4.22855e-05 21.6056
2511 0.0415892 884.961 31.1672 4.22855e-05 21.5941
2512 0.0416315 885.066 31.2046 4.22855e-05 21.5825
2513 0.0416737 885.17 31.242 4.22855e-05 21.571
2514 0.041716 885.275 31.2794 4.22855e-05 21.5595
2515 0.0417583 885.38 31.3169 4.22855e-05 21.548
2516 0.0418006 885.484 31.3543 4.22855e-05 21.5365
2517 0.0418429 885.588 31.3918 4.22855e-05 21.525
2518 0.0418852 885.692 31.4292 4.22855e-05 21.5136
2519 0.0419275 885.796 31.4667 4.22855e-05 21.5021
2520 0.0419697 885.9 31.5041 4.22855e-05 21.4907
2521 0.042012 886.004 31.5416 4.22855e-05 21.4793
2522 0.0420543 886.107 31.5791 4.22855e-05 21.4679
2523 0.0420966 886.21 31.6165 4.22855e-05 21.4565
2524 0.0421389 886.314 31.654 4.22855e-05 21.4452
2525 0.0421812 886.417 31.6915 4.22855e-05 21.4338
2526 0.0422235 886.519 31.729 4.22855e-05 21.4225
2527 0.0422657 886.622 31.7665 4.22855e-05 21.4112
2528 0.042308 886.725 31.804 4.22855e-05 21.3999
2529 0.0423503 886.827 31.8415 4.22855e-05 21.3886
2530 0.0423926 886.929 31.879 4.22855e-05 21.3773
2531 0.0424349 887.032 31.9165 4.22855e-05 21.366
2532 0.0424772 887.134 31.954 4.22855e-05 21.3548
2533 0.0425195 887.235 31.9915 4.22855e-05 21.3436
2534 0.0425617 887.337 32.029 4.22855e-05 21.3324
2535 0.042604 887.439 32.0665 4.22855e-05 21.3212
2536 0.0426463 887.54 32.1041 4.22855e-05 21.31
2537 0.0426886 887.641 32.1416 4.22855e-05 21.2988
2538 0.0427309 887.742 32.1791 4.22855e-05 21.2877
2539 0.0427732 887.843 32.2167 4.22855e-05 21.2765
2540 0.0428154 887.944 32.2542 4.22855e-05 21.2654
2541 0.0428577 888.045 32.2918 4.22855e-05 21.2543
2542 0.0429 888.146 32.3293 4.22855e-05 21.2432
2543 0.0429423 888.246 32.3669 4.22855e-05 21.2321
2544 0.0429846 888.346 32.4044 4.22855e-05 21.2211
2545 0.0430269 888.446 32.442 4.22855e-05 21.21
2546 0.0430692 888.546 32.4796 4.6514e-05 21.199
2547 0.0431157 888.656 32.5209 4.6514e-05 21.1869
2548 0.0431622 888.766 32.5622 4.6514e-05 21.1747
2549 0.0432087 888.875 32.6036 4.6514e-05 21.1627
2550 0.0432552 888.985 32.6449 4.6514e-05 21.1506
2551 0.0433017 889.094 32.6863 4.6514e-05 21.1385
2552 0.0433482 889.203 32.7276 4.6514e-05 21.1265
2553 0.0433948 889.311 32.769 4.6514e-05 21.1145
2554 0.0434413 889.42 32.8104 4.6514e-05 21.1025
2555 0.0434878 889.528 32.8517 4.6514e-05 21.0905
2556 0.0435343 889.637 32.8931 4.6514e-05 21.0785
2557 0.0435808 889.745 32.9345 4.6514e-05 21.0666
2558 0.0436273 889.853 32.9759 4.6514e-05 21.0547
2559 0.0436738 889.961 33.0173 4.6514e-05 21.0428
2560 0.0437204 890.068 33.0587 4.6514e-05 21.0309
2561 0.0437669 890.176 33.1001 4.6514e-05 21.019
2562 0.0438134 890.283 33.1415 4.6514e-05 21.0071
2563 0.0438599 890.39 33.1829 4.6514e-05 20.9953
2564 0.0439064 890.497 33.2243 4.6514e-05 20.9834
2565 0.0439529 890.604 33.2658 4.6514e-05 20.9716
2566 0.0439994 890.711 33.3072 4.6514e-05 20.9598
2567 0.044046 890.817 33.3486 4.6514e-05 20.9481
2568 0.0440925 890.923 33.3901 4.6514e-05 20.9363
2569 0.044139 891.029 33.4315 4.6514e-05 20.9246
2570 0.0441855 891.135 33.4729 4.6514e-05 20.9128
2571 0.044232 891.241 33.5144 4.6514e-05 20.9011
2572 0.0442785 891.347 33.5559 4.6514e-05 20.8894
2573 0.044325 891.452 33.5973 4.6514e-05 20.8777
2574 0.0443716 891.558 33.6388 4.6514e-05 20.8661
2575 0.0444181 891.663 33.6803 4.6514e-05 20.8544
2576 0.0444646 891.768 33.7217 4.6514e-05 20.8428
2577 0.0445111 891.873 33.7632 4.6514e-05 20.8312
2578 0.0445576 891.977 33.8047 4.6514e-05 20.8196
2579 0.0446041 892.082 33.8462 4.6514e-05 20.808
2580 0.0446506 892.186 33.8877 4.6514e-05 20.7964
2581 0.0446972 892.291 33.9292 4.6514e-05 20.7849
2582 0.0447437 892.395 33.9707 4.6514e-05 20.7734
2583 0.0447902 892.498 34.0122 4.6514e-05 20.7619
2584 0.0448367 892.602 34.0537 4.6514e-05 20.7504
2585 0.0448832 892.706 34.0952 4.6514e-05 20.7389
2586 0.0449297 892.809 34.1368 4.6514e-05 20.7274
2587 0.0449762 892.912 34.1783 4.6514e-05 20.716
2588 0.0450228 893.016 34.2198 4.6514e-05 20.7045
2589 0.0450693 893.119 34.2614 4.6514e-05 20.6931
2590 0.0451158 893.221 34.3029 4.6514e-05 20.6817
2591 0.0451623 893.324 34.3445 4.6514e-05 20.6703
2592 0.0452088 893.426 34.386 4.6514e-05 20.6589
2593 0.0452553 893.529 34.4276 4.6514e-05 20.6476
2594 0.0453018 893.631 34.4692 4.6514e-05 20.6362
2595 0.0453484 893.733 34.5107 4.6514e-05 20.6249
2596 0.0453949 893.835 34.5523 4.6514e-05 20.6136
2597 0.0454414 893.937 34.5939 4.6514e-05 20.6023
2598 0.0454879 894.038 34.6355 4.6514e-05 20.591
2599 0.0455344 894.14 34.677 4.6514e-05 20.5798
2600 0.0455809 894.241 34.7186 4.6514e-05 20.5685
2601 0.0456274 894.342 34.7602 4.6514e-05 20.5573
2602 0.0456739 894.443 34.8018 4.6514e-05 20.5461
2603 0.0457205 894.544 34.8434 4.6514e-05 20.5349
2604 0.045767 894.644 34.8851 4.6514e-05 20.5237
2605 0.0458135 894.745 34.9267 4.6514e-05 20.5125
2606 0.04586 894.845 34.9683 4.6514e-05 20.5014
2607 0.0459065 894.945 35.0099 4.6514e-05 20.4902
2608 0.045953 895.045 35.0515 4.6514e-05 20.4791
2609 0.0459995 895.145 35.0932 5.11655e-05 20.468
2610 0.0460507 895.255 35.139 5.11655e-05 20.4558
2611 0.0461019 895.365 35.1848 5.11655e-05 20.4436
2612 0.046153 895.474 35.2306 5.11655e-05 20.4315
2613 0.0462042 895.583 35.2764 5.11655e-05 20.4193
2614 0.0462554 895.692 35.3222 5.11655e-05 20.4072
2615 0.0463065 895.801 35.3681 5.11655e-05 20.3951
2616 0.0463577 895.91 35.4139 5.11655e-05 20.383
2617 0.0464089 896.018 35.4598 5.11655e-05 20.3709
2618 0.04646 896.126 35.5056 5.11655e-05 20.3589
2619 0.0465112 896.235 35.5515 5.11655e-05 20.3468
2620 0.0465624 896.342 35.5973 5.11655e-05 20.3348
2621 0.0466135 896.45 35.6432 5.11655e-05 20.3228
2622 0.0466647 896.558 35.6891 5.11655e-05 20.3108
2623 0.0467159 896.665 35.7349 5.11655e-05 20.2988
2624 0.046767 896.772 35.7808 5.11655e-05 20.2869
2625 0.0468182 896.879 35.8267 5.11655e-05 20.275
2626 0.0468694 896.986 35.8726 5.11655e-05 20.263
2627 0.0469205 897.093 35.9185 5.11655e-05 20.2512
2628 0.0469717 897.2 35.9644 5.11655e-05 20.2393
2629 0.0470229 897.306 36.0103 5.11655e-05 20.2274
2630 0.047074 897.412 36.0562 5.11655e-05 20.2156
2631 0.0471252 897.518 36.1021 5.11655e-05 20.2037
2632 0.0471764 897.624 36.1481 5.11655e-05 20.1919
2633 0.0472275 897.73 36.194 5.11655e-05 20.1801
2634 0.0472787 897.835 36.2399 5.11655e-05 20.1684
2635 0.0473298 897.941 36.2859 5.11655e-05 20.1566
2636 0.047381 898.046 36.3318 5.11655e-05 20.1449
2637 0.0474322 898.151 36.3778 5.11655e-05 20.1332
2638 0.0474833 898.256 36.4237 5.11655e-05 20.1214
2639 0.0475345 898.36 36.4697 5.11655e-05 20.1098
2640 0.0475857 898.465 36.5156 5.11655e-05 20.0981
2641 0.0476368 898.569 36.5616 5.11655e-05 20.0864
2642 0.047688 898.673 36.6076 5.11655e-05 20.0748
2643 0.0477392 898.777 36.6536 5.11655e-05 20.0632
2644 0.0477903 898.881 36.6996 5.11655e-05 20.0516
2645 0.0478415 898.985 36.7456 5.11655e-05 20.04
2646 0.0478927 899.088 36.7916 5.11655e-05 20.0284
2647 0.0479438 899.192 36.8376 5.11655e-05 20.0169
2648 0.047995 899.295 36.8836 5.11655e-05 20.0053
2649 0.0480462 899.398 36.9296 5.11655e-05 19.9938
2650 0.0480973 899.501 36.9756 5.11655e-05 19.9823
2651 0.0481485 899.603 37.0216 5.11655e-05 19.9708
2652 0.0481997 899.706 37.0677 5.11655e-05 19.9594
2653 0.0482508 899.808 37.1137 5.11655e-05 19.9479
2654 0.048302 899.91 37.1598 5.11655e-05 19.9365
2655 0.0483532 900.012 37.2058 5.11655e-05 19.925
2656 0.0484043 900.114 37.2519 5.11655e-05 19.9136
2657 0.0484555 900.216 37.2979 5.11655e-05 19.9023
2658 0.0485067 900.317 37.344 5.11655e-05 19.8909
2659 0.0485578 900.419 37.39 5.11655e-05 19.8795
2660 0.048609 900.52 37.4361 5.11655e-05 19.8682
2661 0.0486602 900.621 37.4822 5.11655e-05 19.8569
2662 0.0487113 900.722 37.5283 5.11655e-05 19.8456
2663 0.0487625 900.823 37.5744 5.11655e-05 19.8343
2664 0.0488136 900.923 37.6205 5.11655e-05 19.823
2665 0.0488648 901.024 37.6666 5.11655e-05 19.8117
2666 0.048916 901.124 37.7127 5.11655e-05 19.8005
2667 0.0489671 901.224 37.7588 5.11655e-05 19.7893
2668 0.0490183 901.324 37.8049 5.6282e-05 19.7781
2669 0.0490746 901.434 37.8556 5.6282e-05 19.7657
2670 0.0491309 901.543 37.9063 5.6282e-05 19.7535
2671 0.0491872 901.653 37.9571 5.6282e-05 19.7412
2672 0.0492434 901.762 38.0078 5.6282e-05 19.7289
2673 0.0492997 901.871 38.0586 5.6282e-05 19.7167
2674 0.049356 901.979 38.1094 5.6282e-05 19.7045
2675 0.0494123 902.088 38.1601 5.6282e-05 19.6923
2676 0.0494686 902.197 38.2109 5.6282e-05 19.6801
2677 0.0495248 902.305 38.2617 5.6282e-05 19.6679
2678 0.0495811 902.413 38.3125 5.6282e-05 19.6558
2679 0.0496374 902.521 38.3633 5.6282e-05 19.6437
2680 0.0496937 902.628 38.4141 5.6282e-05 19.6316
2681 0.04975 902.736 38.4649 5.6282e-05 19.6195
2682 0.0498063 902.843 38.5157 5.6282e-05 19.6074
2683 0.0498625 902.95 38.5665 5.6282e-05 19.5954
2684 0.0499188 903.057 38.6173 5.6282e-05 19.5833
2685 0.0499751 903.164 38.6681 5.6282e-05 19.5713
2686 0.0500314 903.271 38.719 5.6282e-05 19.5593
2687 0.0500877 903.377 38.7698 5.6282e-05 19.5474
2688 0.0501439 903.483 38.8207 5.6282e-05 19.5354
2689 0.0502002 903.589 38.8715 5.6282e-05 19.5235
2690 0.0502565 903.695 38.9224 5.6282e-05 19.5116
2691 0.0503128 903.801 38.9732 5.6282e-05 19.4997
2692 0.0503691 903.906 39.0241 5.6282e-05 19.4878
2693 0.0504254 904.011 39.075 5.6282e-05 19.4759
2694 0.0504816 904.117 39.1259 5.6282e-05 19.4641
2695 0.0505379 904.222 39.1768 5.6282e-05 19.4522
2696 0.0505942 904.326 39.2277 5.6282e-05 19.4404
2697 0.0506505 904.431 39.2786 5.6282e-05 19.4286
2698 0.0507068 904.535 39.3295 5.6282e-05 19.4169
2699 0.0507631 904.64 39.3804 5.6282e-05 19.4051
2700 0.0508193 904.744 39.4313 5.6282e-05 19.3934
2701 0.0508756 904.848 39.4822 5.6282e-05 19.3816
2702 0.0509319 904.951 39.5331 5.6282e-05 19.3699
2703 0.0509882 905.055 39.5841 5.6282e-05 19.3583
2704 0.0510445 905.158 39.635 5.6282e-05 19.3466
2705 0.0511007 905.261 39.686 5.6282e-05 19.3349
2706 0.051157 905.364 39.7369 5.6282e-05 19.3233
2707 0.0512133 905.467 39.7879 5.6282e-05 19.3117
2708 0.0512696 905.57 39.8388 5.6282e-05 19.3001
2709 0.0513259 905.672 39.8898 5.6282e-05 19.2885
2710 0.0513822 905.775 39.9408 5.6282e-05 19.2769
2711 0.0514384 905.877 39.9918 5.6282e-05 19.2654
2712 0.0514947 905.979 40.0428 5.6282e-05 19.2539
2713 0.051551 906.081 40.0938 5.6282e-05 19.2424
2714 0.0516073 906.182 40.1448 5.6282e-05 19.2309
2715 0.0516636 906.284 40.1958 5.6282e-05 19.2194
2716 0.0517198 906.385 40.2468 5.6282e-05 19.2079
2717 0.0517761 906.486 40.2978 5.6282e-05 19.1965
2718 0.0518324 906.587 40.3488 5.6282e-05 19.1851
2719 0.0518887 906.688 40.3998 5.6282e-05 19.1736
2720 0.051945 906.788 40.4509 5.6282e-05 19.1623
2721 0.0520013 906.889 40.5019 5.6282e-05 19.1509
2722 0.0520575 906.989 40.553 5.6282e-05 19.1395
2723 0.0521138 907.089 40.604 5.6282e-05 19.1282
2724 0.0521701 907.189 40.6551 6.19102e-05 19.1169
2725 0.052232 907.299 40.7112 6.19102e-05 19.1044
2726 0.0522939 907.408 40.7674 6.19102e-05 19.092
2727 0.0523558 907.518 40.8236 6.19102e-05 19.0796
2728 0.0524177 907.627 40.8798 6.19102e-05 19.0672
2729 0.0524797 907.736 40.936 6.19102e-05 19.0549
2730 0.0525416 907.845 40.9922 6.19102e-05 19.0425
2731 0.0526035 907.953 41.0484 6.19102e-05 19.0302
2732 0.0526654 908.061 41.1046 6.19102e-05 19.0179
2733 0.0527273 908.17 41.1608 6.19102e-05 19.0056
2734 0.0527892 908.278 41.217 6.19102e-05 18.9934
2735 0.0528511 908.385 41.2733 6.19102e-05 18.9811
2736 0.052913 908.493 41.3295 6.19102e-05 18.9689
2737 0.0529749 908.6 41.3858 6.19102e-05 18.9567
2738 0.0530368 908.707 41.442 6.19102e-05 18.9445
2739 0.0530988 908.814 41.4983 6.19102e-05 18.9324
2740 0.0531607 908.921 41.5545 6.19102e-05 18.9202
2741 0.0532226 909.028 41.6108 6.19102e-05 18.9081
2742 0.0532845 909.134 41.6671 6.19102e-05 18.896
2743 0.0533464 909.24 41.7234 6.19102e-05 18.8839
2744 0.0534083 909.346 41.7797 6.19102e-05 18.8719
2745 0.0534702 909.452 41.836 6.19102e-05 18.8598
2746 0.0535321 909.558 41.8923 6.19102e-05 18.8478
2747 0.053594 909.663 41.9486 6.19102e-05 18.8358
2748 0.0536559 909.769 42.0049 6.19102e-05 18.8238
2749 0.0537179 909.874 42.0613 6.19102e-05 18.8118
2750 0.0537798 909.978 42.1176 6.19102e-05 18.7999
2751 0.0538417 910.083 42.1739 6.19102e-05 18.788
2752 0.0539036 910.188 42.2303 6.19102e-05 18.7761
2753 0.0539655 910.292 42.2866 6.19102e-05 18.7642
2754 0.0540274 910.396 42.343 6.19102e-05 18.7523
2755 0.0540893 910.5 42.3994 6.19102e-05 18.7404
2756 0.0541512 910.604 42.4557 6.19102e-05 18.7286
2757 0.0542131 910.707 42.5121 6.19102e-05 18.7168
2758 0.054275 910.811 42.5685 6.19102e-05 18.705
2759 0.054337 910.914 42.6249 6.19102e-05 18.6932
2760 0.0543989 911.017 42.6813 6.19102e-05 18.6814
2761 0.0544608 911.12 42.7377 6.19102e-05 18.6697
2762 0.0545227 911.222 42.7941 6.19102e-05 18.658
2763 0.0545846 911.325 42.8505 6.19102e-05 18.6463
2764 0.0546465 911.427 42.9069 6.19102e-05 18.6346
2765 0.0547084 911.529 42.9634 6.19102e-05 18.6229
2766 0.0547703 911.631 43.0198 6.19102e-05 18.6113
2767 0.0548322 911.733 43.0762 6.19102e-05 18.5996
2768 0.0548941 911.834 43.1327 6.19102e-05 18.588
2769 0.0549561 911.936 43.1891 6.19102e-05 18.5764
2770 0.055018 912.037 43.2456 6.19102e-05 18.5648
2771 0.0550799 912.138 43.3021 6.19102e-05 18.5533
2772 0.0551418 912.239 43.3586 6.19102e-05 18.5417
2773 0.0552037 912.339 43.415 6.19102e-05 18.5302
2774 0.0552656 912.44 43.4715 6.19102e-05 18.5187
2775 0.0553275 912.54 43.528 6.19102e-05 18.5072
2776 0.0553894 912.64 43.5845 6.19102e-05 18.4957
2777 0.0554513 912.74 43.641 6.81012e-05 18.4843
2778 0.0555194 912.85 43.7032 6.81012e-05 18.4717
2779 0.0555875 912.96 43.7653 6.81012e-05 18.4591
2780 0.0556556 913.069 43.8275 6.81012e-05 18.4466
2781 0.0557237 913.178 43.8897 6.81012e-05 18.4341
2782 0.0557918 913.287 43.9519 6.81012e-05 18.4216
2783 0.0558599 913.396 44.0141 6.81012e-05 18.4091
2784 0.055928 913.504 44.0763 6.81012e-05 18.3967
2785 0.0559962 913.612 44.1385 6.81012e-05 18.3842
2786 0.0560643 913.72 44.2007 6.81012e-05 18.3718
2787 0.0561324 913.828 44.263 6.81012e-05 18.3594
2788 0.0562005 913.936 44.3252 6.81012e-05 18.3471
2789 0.0562686 914.043 44.3875 6.81012e-05 18.3347
2790 0.0563367 914.15 44.4497 6.81012e-05 18.3224
2791 0.0564048 914.257 44.512 6.81012e-05 18.3101
2792 0.0564729 914.364 44.5742 6.81012e-05 18.2978
2793 0.056541 914.471 44.6365 6.81012e-05 18.2855
2794 0.0566091 914.577 44.6988 6.81012e-05 18.2733
2795 0.0566772 914.683 44.7611 6.81012e-05 18.261
2796 0.0567453 914.789 44.8234 6.81012e-05 18.2488
2797 0.0568134 914.895 44.8857 6.81012e-05 18.2367
2798 0.0568815 915.001 44.948 6.81012e-05 18.2245
2799 0.0569496 915.106 45.0103 6.81012e-05 18.2123
2800 0.0570177 915.211 45.0726 6.81012e-05 18.2002
2801 0.0570858 915.316 45.1349 6.81012e-05 18.1881
2802 0.0571539 915.421 45.1973 6.81012e-05 18.176
2803 0.057222 915.526 45.2596 6.81012e-05 18.164
2804 0.0572901 915.63 45.322 6.81012e-05 18.1519
2805 0.0573582 915.734 45.3843 6.81012e-05 18.1399
2806 0.0574263 915.838 45.4467 6.81012e-05 18.1279
2807 0.0574944 915.942 45.5091 6.81012e-05 18.1159
2808 0.0575625 916.046 45.5715 6.81012e-05 18.1039
2809 0.0576306 916.149 45.6338 6.81012e-05 18.092
2810 0.0576987 916.252 45.6962 6.81012e-05 18.0801
2811 0.0577668 916.355 45.7586 6.81012e-05 18.0682
2812 0.0578349 916.458 45.821 6.81012e-05 18.0563
2813 0.057903 916.561 45.8835 6.81012e-05 18.0444
2814 0.0579711 916.663 45.9459 6.81012e-05 18.0326
2815 0.0580392 916.766 46.0083 6.81012e-05 18.0207
2816 0.0581073 916.868 46.0708 6.81012e-05 18.0089
2817 0.0581754 916.97 46.1332 6.81012e-05 17.9971
2818 0.0582435 917.071 46.1956 6.81012e-05 17.9853
2819 0.0583116 917.173 46.2581 6.81012e-05 17.9736
2820 0.0583797 917.274 46.3206 6.81012e-05 17.9619
2821 0.0584478 917.375 46.383 6.81012e-05 17.9501
2822 0.0585159 917.476 46.4455 6.81012e-05 17.9384
2823 0.058584 917.577 46.508 6.81012e-05 17.9268
2824 0.0586521 917.677 46.5705 6.81012e-05 17.9151
2825 0.0587202 917.778 46.633 6.81012e-05 17.9035
2826 0.0587883 917.878 46.6955 6.81012e-05 17.8919
2827 0.0588564 917.978 46.758 7.49113e-05 17.8802
2828 0.0589313 918.087 46.8268 7.49113e-05 17.8675
2829 0.0590062 918.197 46.8956 7.49113e-05 17.8548
2830 0.0590811 918.306 46.9643 7.49113e-05 17.8421
2831 0.059156 918.415 47.0331 7.49113e-05 17.8294
2832 0.059231 918.524 47.1019 7.49113e-05 17.8168
2833 0.0593059 918.633 47.1708 7.49113e-05 17.8041
2834 0.0593808 918.741 47.2396 7.49113e-05 17.7915
2835 0.0594557 918.849 47.3084 7.49113e-05 17.7789
2836 0.0595306 918.957 47.3772 7.49113e-05 17.7664
2837 0.0596055 919.065 47.4461 7.49113e-05 17.7538
2838 0.0596804 919.173 47.5149 7.49113e-05 17.7413
2839 0.0597553 919.28 47.5838 7.49113e-05 17.7288
2840 0.0598302 919.387 47.6527 7.49113e-05 17.7164
2841 0.0599052 919.494 47.7215 7.49113e-05 17.7039
2842 0.0599801 919.601 47.7904 7.49113e-05 17.6915
2843 0.060055 919.707 47.8593 7.49113e-05 17.6791
2844 0.0601299 919.813 47.9282 7.49113e-05 17.6667
2845 0.0602048 919.919 47.9971 7.49113e-05 17.6543
2846 0.0602797 920.025 48.066 7.49113e-05 17.642
2847 0.0603546 920.131 48.135 7.49113e-05 17.6296
2848 0.0604295 920.236 48.2039 7.49113e-05 17.6173
2849 0.0605045 920.341 48.2728 7.49113e-05 17.605
2850 0.0605794 920.446 48.3418 7.49113e-05 17.5928
2851 0.0606543 920.551 48.4107 7.49113e-05 17.5805
2852 0.0607292 920.655 48.4797 7.49113e-05 17.5683
2853 0.0608041 920.76 48.5487 7.49113e-05 17.5561
2854 0.060879 920.864 48.6177 7.49113e-05 17.544
2855 0.0609539 920.968 48.6866 7.49113e-05 17.5318
2856 0.0610288 921.071 48.7556 7.49113e-05 17.5197
2857 0.0611037 921.175 48.8246 7.49113e-05 17.5075
2858 0.0611787 921.278 48.8937 7.49113e-05 17.4955
2859 0.0612536 921.381 48.9627 7.49113e-05 17.4834
2860 0.0613285 921.484 49.0317 7.49113e-05 17.4713
2861 0.0614034 921.587 49.1007 7.49113e-05 17.4593
2862 0.0614783 921.689 49.1698 7.49113e-05 17.4473
2863 0.0615532 921.792 49.2388 7.49113e-05 17.4353
2864 0.0616281 921.894 49.3079 7.49113e-05 17.4233
2865 0.061703 921.995 49.3769 7.49113e-05 17.4114
2866 0.0617779 922.097 49.446 7.49113e-05 17.3994
2867 0.0618529 922.198 49.5151 7.49113e-05 17.3875
2868 0.0619278 922.3 49.5842 7.49113e-05 17.3756
2869 0.0620027 922.401 49.6533 7.49113e-05 17.3638
2870 0.0620776 922.502 49.7224 7.49113e-05 17.3519
2871 0.0621525 922.602 49.7915 7.49113e-05 17.3401
2872 0.0622274 922.703 49.8606 7.49113e-05 17.3283
2873 0.0623023 922.803 49.9297 7.49113e-05 17.3165
2874 0.0623772 922.903 49.9989 7.49113e-05 17.3047
2875 0.0624521 923.003 50.068 8.24025e-05 17.293
2876 0.0625345 923.112 50.1441 8.24025e-05 17.2801
2877 0.062617 923.222 50.2201 8.24025e-05 17.2672
2878 0.0626994 923.331 50.2962 8.24025e-05 17.2543
2879 0.0627818 923.44 50.3723 8.24025e-05 17.2415
2880 0.0628642 923.548 50.4484 8.24025e-05 17.2287
2881 0.0629466 923.657 50.5245 8.24025e-05 17.2159
2882 0.063029 923.765 50.6006 8.24025e-05 17.2032
2883 0.0631114 923.873 50.6767 8.24025e-05 17.1904
2884 0.0631938 923.981 50.7529 8.24025e-05 17.1777
2885 0.0632762 924.088 50.829 8.24025e-05 17.165
2886 0.0633586 924.195 50.9052 8.24025e-05 17.1524
2887 0.063441 924.302 50.9813 8.24025e-05 17.1397
2888 0.0635234 924.409 51.0575 8.24025e-05 17.1271
2889 0.0636058 924.516 51.1337 8.24025e-05 17.1145
2890 0.0636882 924.622 51.2099 8.24025e-05 17.1019
2891 0.0637706 924.728 51.2861 8.24025e-05 17.0894
2892 0.063853 924.834 51.3623 8.24025e-05 17.0768
2893 0.0639354 924.94 51.4385 8.24025e-05 17.0643
2894 0.0640178 925.045 51.5147 8.24025e-05 17.0518
2895 0.0641002 925.15 51.5909 8.24025e-05 17.0394
2896 0.0641826 925.255 51.6672 8.24025e-05 17.0269
2897 0.064265 925.36 51.7434 8.24025e-05 17.0145
2898 0.0643474 925.465 51.8197 8.24025e-05 17.0021
2899 0.0644298 925.569 51.8959 8.24025e-05 16.9898
2900 0.0645122 925.673 51.9722 8.24025e-05 16.9774
2901 0.0645946 925.777 52.0485 8.24025e-05 16.9651
2902 0.064677 925.881 52.1248 8.24025e-05 16.9528
2903 0.0647594 925.984 52.2011 8.24025e-05 16.9405
2904 0.0648418 926.087 52.2774 8.24025e-05 16.9282
2905 0.0649242 926.19 52.3537 8.24025e-05 16.916
2906 0.0650066 926.293 52.43 8.24025e-05 16.9038
2907 0.065089 926.396 52.5064 8.24025e-05 16.8916
2908 0.0651714 926.498 52.5827 8.24025e-05 16.8794
2909 0.0652538 926.6 52.6591 8.24025e-05 16.8672
2910 0.0653362 926.702 52.7354 8.24025e-05 16.8551
2911 0.0654186 926.804 52.8118 8.24025e-05 16.843
2912 0.065501 926.905 52.8882 8.24025e-05 16.8309
2913 0.0655834 927.006 52.9645 8.24025e-05 16.8188
2914 0.0656658 927.108 53.0409 8.24025e-05 16.8068
2915 0.0657482 927.208 53.1173 8.24025e-05 16.7948
2916 0.0658306 927.309 53.1937 8.24025e-05 16.7828
2917 0.065913 927.409 53.2702 8.24025e-05 16.7708
2918 0.0659955 927.51 53.3466 8.24025e-05 16.7588
2919 0.0660779 927.61 53.423 8.24025e-05 16.7469
2920 0.0661603 927.709 53.4995 9.06427e-05 16.735
2921 0.0662509 927.819 53.5836 9.06427e-05 16.7219
2922 0.0663415 927.928 53.6677 9.06427e-05 16.7088
2923 0.0664322 928.037 53.7518 9.06427e-05 16.6958
2924 0.0665228 928.146 53.8359 9.06427e-05 16.6828
2925 0.0666135 928.255 53.92 9.06427e-05 16.6698
2926 0.0667041 928.363 54.0042 9.06427e-05 16.6568
2927 0.0667948 928.471 54.0883 9.06427e-05 16.6439
2928 0.0668854 928.579 54.1725 9.06427e-05 16.631
2929 0.066976 928.686 54.2567 9.06427e-05 16.6181
2930 0.0670667 928.794 54.3409 9.06427e-05 16.6052
2931 0.0671573 928.901 54.4251 9.06427e-05 16.5924
2932 0.067248 929.007 54.5093 9.06427e-05 16.5796
2933 0.0673386 929.114 54.5935 9.06427e-05 16.5668
2934 0.0674293 929.22 54.6777 9.06427e-05 16.554
2935 0.0675199 929.326 54.7619 9.06427e-05 16.5413
2936 0.0676105 929.432 54.8462 9.06427e-05 16.5286
2937 0.0677012 929.538 54.9304 9.06427e-05 16.5159
2938 0.0677918 929.643 55.0147 9.06427e-05 16.5032
2939 0.0678825 929.748 55.0989 9.06427e-05 16.4906
2940 0.0679731 929.853 55.1832 9.06427e-05 16.4779
2941 0.0680638 929.958 55.2675 9.06427e-05 16.4653
2942 0.0681544 930.062 55.3518 9.06427e-05 16.4528
2943 0.068245 930.166 55.4361 9.06427e-05 16.4402
2944 0.0683357 930.27 55.5204 9.06427e-05 16.4277
2945 0.0684263 930.374 55.6048 9.06427e-05 16.4152
2946 0.068517 930.478 55.6891 9.06427e-05 16.4027
2947 0.0686076 930.581 55.7734 9.06427e-05 16.3902
2948 0.0686983 930.684 55.8578 9.06427e-05 16.3778
2949 0.0687889 930.787 55.9422 9.06427e-05 16.3654
2950 0.0688795 930.889 56.0265 9.06427e-05 16.353
2951 0.0689702 930.992 56.1109 9.06427e-05 16.3407
2952 0.0690608 931.094 56.1953 9.06427e-05 16.3283
2953 0.0691515 931.196 56.2797 9.06427e-05 16.316
2954 0.0692421 931.297 56.3641 9.06427e-05 16.3037
2955 0.0693328 931.399 56.4485 9.06427e-05 16.2914
2956 0.0694234 931.5 56.533 9.06427e-05 16.2792
2957 0.069514 931.601 56.6174 9.06427e-05 16.267
2958 0.0696047 931.701 56.7019 9.06427e-05 16.2548
2959 0.0696953 931.802 56.7863 9.06427e-05 16.2426
2960 0.069786 931.902 56.8708 9.06427e-05 16.2304
2961 0.0698766 932.002 56.9553 9.06427e-05 16.2183
2962 0.0699673 932.102 57.0397 9.9707e-05 16.2062
2963 0.070067 932.212 57.1327 9.9707e-05 16.1929
2964 0.0701667 932.321 57.2256 9.9707e-05 16.1796
2965 0.0702664 932.43 57.3186 9.9707e-05 16.1663
2966 0.0703661 932.539 57.4116 9.9707e-05 16.1531
2967 0.0704658 932.647 57.5046 9.9707e-05 16.1399
2968 0.0705655 932.756 57.5976 9.9707e-05 16.1268
2969 0.0706652 932.864 57.6906 9.9707e-05 16.1136
2970 0.0707649 932.971 57.7836 9.9707e-05 16.1005
2971 0.0708646 933.079 57.8766 9.9707e-05 16.0874
2972 0.0709643 933.186 57.9697 9.9707e-05 16.0744
2973 0.071064 933.293 58.0627 9.9707e-05 16.0613
2974 0.0711637 933.4 58.1558 9.9707e-05 16.0483
2975 0.0712634 933.506 58.2488 9.9707e-05 16.0353
2976 0.0713631 933.612 58.3419 9.9707e-05 16.0224
2977 0.0714629 933.718 58.435 9.9707e-05 16.0094
2978 0.0715626 933.824 58.5281 9.9707e-05 15.9965
2979 0.0716623 933.929 58.6212 9.9707e-05 15.9837
2980 0.071762 934.035 58.7144 9.9707e-05 15.9708
2981 0.0718617 934.14 58.8075 9.9707e-05 15.958
2982 0.0719614 934.244 58.9006 9.9707e-05 15.9452
2983 0.0720611 934.349 58.9938 9.9707e-05 15.9324
2984 0.0721608 934.453 59.087 9.9707e-05 15.9196
2985 0.0722605 934.557 59.1801 9.9707e-05 15.9069
2986 0.0723602 934.66 59.2733 9.9707e-05 15.8942
2987 0.0724599 934.764 59.3665 9.9707e-05 15.8815
2988 0.0725596 934.867 59.4597 9.9707e-05 15.8689
2989 0.0726593 934.97 59.5529 9.9707e-05 15.8562
2990 0.072759 935.073 59.6462 9.9707e-05 15.8436
2991 0.0728588 935.175 59.7394 9.9707e-05 15.8311
2992 0.0729585 935.277 59.8327 9.9707e-05 15.8185
2993 0.0730582 935.379 59.9259 9.9707e-05 15.806
2994 0.0731579 935.481 60.0192 9.9707e-05 15.7935
2995 0.0732576 935.582 60.1125 9.9707e-05 15.781
2996 0.0733573 935.684 60.2058 9.9707e-05 15.7685
2997 0.073457 935.785 60.2991 9.9707e-05 15.7561
2998 0.0735567 935.885 60.3924 9.9707e-05 15.7437
2999 0.0736564 935.986 60.4857 9.9707e-05 15.7313
3000 0.0737561 936.086 60.579 9.9707e-05 15.7189
3001 0.0738558 936.186 60.6724 9.9707e-05 15.7066
3002 0.0739555 936.286 60.7657 0.000109678 15.6943
3003 0.0740652 936.396 60.8684 0.000109678 15.6808
3004 0.0741749 936.505 60.9711 0.000109678 15.6673
3005 0.0742846 936.614 61.0738 0.000109678 15.6538
3006 0.0743942 936.723 61.1766 0.000109678 15.6404
3007 0.0745039 936.831 61.2793 0.000109678 15.627
3008 0.0746136 936.939 61.3821 0.000109678 15.6136
3009 0.0747233 937.047 61.4848 0.000109678 15.6002
3010 0.074833 937.154 61.5876 0.000109678 15.5869
3011 0.0749426 937.262 61.6904 0.000109678 15.5736
3012 0.0750523 937.369 61.7932 0.000109678 15.5604
3013 0.075162 937.476 61.896 0.000109678 15.5471
3014 0.0752717 937.582 61.9988 0.000109678 15.5339
3015 0.0753813 937.688 62.1017 0.000109678 15.5207
3016 0.075491 937.794 62.2045 0.000109678 15.5076
3017 0.0756007 937.9 62.3074 0.000109678 15.4945
3018 0.0757104 938.005 62.4103 0.000109678 15.4814
3019 0.0758201 938.11 62.5131 0.000109678 15.4683
3020 0.0759297 938.215 62.616 0.000109678 15.4552
3021 0.0760394 938.32 62.7189 0.000109678 15.4422
3022 0.0761491 938.424 62.8219 0.000109678 15.4292
3023 0.0762588 938.528 62.9248 0.000109678 15.4163
3024 0.0763684 938.632 63.0277 0.000109678 15.4033
3025 0.0764781 938.736 63.1307 0.000109678 15.3904
3026 0.0765878 938.839 63.2336 0.000109678 15.3775
3027 0.0766975 938.942 63.3366 0.000109678 15.3647
3028 0.0768072 939.045 63.4396 0.000109678 15.3518
3029 0.0769168 939.147 63.5426 0.000109678 15.339
3030 0.0770265 939.249 63.6456 0.000109678 15.3262
3031 0.0771362 939.351 63.7486 0.000109678 15.3135
3032 0.0772459 939.453 63.8517 0.000109678 15.3008
3033 0.0773555 939.555 63.9547 0.000109678 15.2881
3034 0.0774652 939.656 64.0578 0.000109678 15.2754
3035 0.0775749 939.757 64.1608 0.000109678 15.2627
3036 0.0776846 939.858 64.2639 0.000109678 15.2501
3037 0.0777943 939.958 64.367 0.000109678 15.2375
3038 0.0779039 940.058 64.4701 0.000109678 15.2249
3039 0.0780136 940.158 64.5732 0.000120645 15.2124
3040 0.0781343 940.268 64.6866 0.000120645 15.1986
3041 0.0782549 940.377 64.8001 0.000120645 15.1849
3042 0.0783755 940.486 64.9135 0.000120645 15.1712
3043 0.0784962 940.595 65.027 0.000120645 15.1575
3044 0.0786168 940.704 65.1405 0.000120645 15.1438
3045 0.0787375 940.812 65.254 0.000120645 15.1302
3046 0.0788581 940.92 65.3675 0.000120645 15.1166
3047 0.0789788 941.027 65.481 0.000120645 15.1031
3048 0.0790994 941.135 65.5946 0.000120645 15.0895
3049 0.0792201 941.242 65.7081 0.000120645 15.076
3050 0.0793407 941.348 65.8217 0.000120645 15.0626
3051 0.0794614 941.455 65.9353 0.000120645 15.0491
3052 0.079582 941.561 66.0488 0.000120645 15.0357
3053 0.0797026 941.667 66.1624 0.000120645 15.0223
3054 0.0798233 941.772 66.2761 0.000120645 15.009
3055 0.0799439 941.878 66.3897 0.000120645 14.9956
3056 0.0800646 941.983 66.5033 0.000120645 14.9823
3057 0.0801852 942.087 66.617 0.000120645 14.9691
3058 0.0803059 942.192 66.7306 0.000120645 14.9558
3059 0.0804265 942.296 66.8443 0.000120645 14.9426
3060 0.0805472 942.4 66.958 0.000120645 14.9294
3061 0.0806678 942.504 67.0717 0.000120645 14.9163
3062 0.0807885 942.607 67.1854 0.000120645 14.9032
3063 0.0809091 942.71 67.2992 0.000120645 14.8901
3064 0.0810297 942.813 67.4129 0.000120645 14.877
3065 0.0811504 942.915 67.5266 0.000120645 14.8639
3066 0.081271 943.017 67.6404 0.000120645 14.8509
3067 0.0813917 943.119 67.7542 0.000120645 14.838
3068 0.0815123 943.221 67.868 0.000120645 14.825
3069 0.081633 943.322 67.9818 0.000120645 14.8121
3070 0.0817536 943.424 68.0956 0.000120645 14.7992
3071 0.0818743 943.525 68.2094 0.000120645 14.7863
3072 0.0819949 943.625 68.3233 0.000120645 14.7734
3073 0.0821156 943.725 68.4371 0.000120645 14.7606
3074 0.0822362 943.826 68.551 0.000120645 14.7478
3075 0.0823568 943.925 68.6648 0.00013271 14.7351
3076 0.0824896 944.035 68.7901 0.00013271 14.7211
3077 0.0826223 944.144 68.9154 0.00013271 14.7071
3078 0.082755 944.253 69.0407 0.00013271 14.6931
3079 0.0828877 944.361 69.166 0.00013271 14.6792
3080 0.0830204 944.47 69.2914 0.00013271 14.6653
3081 0.0831531 944.578 69.4167 0.00013271 14.6515
3082 0.0832858 944.685 69.5421 0.00013271 14.6377
3083 0.0834185 944.793 69.6675 0.00013271 14.6239
3084 0.0835512 944.899 69.7928 0.00013271 14.6101
3085 0.0836839 945.006 69.9182 0.00013271 14.5964
3086 0.0838167 945.113 70.0437 0.00013271 14.5827
3087 0.0839494 945.219 70.1691 0.00013271 14.5691
3088 0.0840821 945.324 70.2945 0.00013271 14.5554
3089 0.0842148 945.43 70.42 0.00013271 14.5419
3090 0.0843475 945.535 70.5455 0.00013271 14.5283
3091 0.0844802 945.64 70.671 0.00013271 14.5148
3092 0.0846129 945.744 70.7965 0.00013271 14.5013
3093 0.0847456 945.849 70.922 0.00013271 14.4878
3094 0.0848783 945.953 71.0475 0.00013271 14.4743
3095 0.085011 946.056 71.1731 0.00013271 14.4609
3096 0.0851438 946.16 71.2986 0.00013271 14.4476
3097 0.0852765 946.263 71.4242 0.00013271 14.4342
3098 0.0854092 946.366 71.5498 0.00013271 14.4209
3099 0.0855419 946.468 71.6754 0.00013271 14.4076
3100 0.0856746 946.57 71.801 0.00013271 14.3943
3101 0.0858073 946.672 71.9266 0.00013271 14.3811
3102 0.08594 946.774 72.0523 0.00013271 14.3679
3103 0.0860727 946.875 72.1779 0.00013271 14.3547
3104 0.0862054 946.976 72.3036 0.00013271 14.3416
3105 0.0863381 947.077 72.4293 0.00013271 14.3285
3106 0.0864709 947.178 72.5549 0.00013271 14.3154
3107 0.0866036 947.278 72.6807 0.00013271 14.3023
3108 0.0867363 947.378 72.8064 0.000145981 14.2893
3109 0.0868823 947.487 72.9447 0.000145981 14.275
3110 0.0870282 947.597 73.083 0.000145981 14.2608
3111 0.0871742 947.705 73.2213 0.000145981 14.2466
3112 0.0873202 947.814 73.3597 0.000145981 14.2324
3113 0.0874662 947.922 73.4981 0.000145981 14.2182
3114 0.0876122 948.03 73.6365 0.000145981 14.2041
3115 0.0877581 948.138 73.7749 0.000145981 14.19
3116 0.0879041 948.245 73.9133 0.000145981 14.176
3117 0.0880501 948.352 74.0517 0.000145981 14.1619
3118 0.0881961 948.459 74.1902 0.000145981 14.148
3119 0.0883421 948.565 74.3286 0.000145981 14.134
3120 0.088488 948.671 74.4671 0.000145981 14.1201
3121 0.088634 948.777 74.6056 0.000145981 14.1062
3122 0.08878 948.882 74.7441 0.000145981 14.0924
3123 0.088926 948.987 74.8826 0.000145981 14.0786
3124 0.089072 949.092 75.0212 0.000145981 14.0648
3125 0.0892179 949.196 75.1597 0.000145981 14.051
3126 0.0893639 949.3 75.2983 0.000145981 14.0373
3127 0.0895099 949.404 75.4369 0.000145981 14.0236
3128 0.0896559 949.507 75.5755 0.000145981 14.01
3129 0.0898019 949.61 75.7141 0.000145981 13.9964
3130 0.0899479 949.713 75.8527 0.000145981 13.9828
3131 0.0900938 949.816 75.9914 0.000145981 13.9692
3132 0.0902398 949.918 76.1301 0.000145981 13.9557
3133 0.0903858 950.02 76.2687 0.000145981 13.9422
3134 0.0905318 950.121 76.4074 0.000145981 13.9288
3135 0.0906778 950.222 76.5461 0.000145981 13.9153
3136 0.0908237 950.323 76.6849 0.000145981 13.9019
3137 0.0909697 950.424 76.8236 0.000145981 13.8886
3138 0.0911157 950.524 76.9623 0.000145981 13.8752
3139 0.0912617 950.624 77.1011 0.000145981 13.8619
3140 0.0914077 950.724 77.2399 0.000160579 13.8487
3141 0.0915682 950.834 77.3926 0.000160579 13.8341
3142 0.0917288 950.943 77.5453 0.000160579 13.8196
3143 0.0918894 951.051 77.698 0.000160579 13.8051
3144 0.09205 951.16 77.8507 0.000160579 13.7907
3145 0.0922106 951.268 78.0034 0.000160579 13.7763
3146 0.0923711 951.375 78.1562 0.000160579 13.7619
3147 0.0925317 951.483 78.309 0.000160579 13.7475
3148 0.0926923 951.59 78.4618 0.000160579 13.7332
3149 0.0928529 951.696 78.6146 0.000160579 13.719
3150 0.0930135 951.802 78.7674 0.000160579 13.7048
3151 0.093174 951.908 78.9203 0.000160579 13.6906
3152 0.0933346 952.014 79.0731 0.000160579 13.6764
3153 0.0934952 952.119 79.226 0.000160579 13.6623
3154 0.0936558 952.224 79.3789 0.000160579 13.6482
3155 0.0938164 952.328 79.5318 0.000160579 13.6342
3156 0.0939769 952.433 79.6848 0.000160579 13.6201
3157 0.0941375 952.537 79.8377 0.000160579 13.6062
3158 0.0942981 952.64 79.9907 0.000160579 13.5922
3159 0.0944587 952.743 80.1437 0.000160579 13.5783
3160 0.0946192 952.846 80.2967 0.000160579 13.5644
3161 0.0947798 952.949 80.4497 0.000160579 13.5506
3162 0.0949404 953.051 80.6027 0.000160579 13.5368
3163 0.095101 953.153 80.7558 0.000160579 13.523
3164 0.0952616 953.254 80.9088 0.000160579 13.5093
3165 0.0954221 953.356 81.0619 0.000160579 13.4956
3166 0.0955827 953.457 81.215 0.000160579 13.4819
3167 0.0957433 953.557 81.3681 0.000160579 13.4683
3168 0.0959039 953.657 81.5212 0.000160579 13.4547
3169 0.0960645 953.757 81.6744 0.000176637 13.4411
3170 0.0962411 953.867 81.8429 0.000176637 13.4263
3171 0.0964177 953.976 82.0114 0.000176637 13.4114
3172 0.0965944 954.085 82.1799 0.000176637 13.3966
3173 0.096771 954.193 82.3484 0.000176637 13.3818
3174 0.0969476 954.302 82.517 0.000176637 13.3671
3175 0.0971243 954.409 82.6856 0.000176637 13.3524
3176 0.0973009 954.517 82.8541 0.000176637 13.3378
3177 0.0974776 954.624 83.0228 0.000176637 13.3232
3178 0.0976542 954.73 83.1914 0.000176637 13.3086
3179 0.0978308 954.836 83.36 0.000176637 13.2941
3180 0.0980075 954.942 83.5287 0.000176637 13.2796
3181 0.0981841 955.048 83.6974 0.000176637 13.2652
3182 0.0983607 955.153 83.8661 0.000176637 13.2508
3183 0.0985374 955.258 84.0348 0.000176637 13.2364
3184 0.098714 955.362 84.2036 0.000176637 13.2221
3185 0.0988907 955.466 84.3723 0.000176637 13.2078
3186 0.0990673 955.57 84.5411 0.000176637 13.1935
3187 0.0992439 955.673 84.7099 0.000176637 13.1793
3188 0.0994206 955.776 84.8787 0.000176637 13.1651
3189 0.0995972 955.879 85.0476 0.000176637 13.1509
3190 0.0997738 955.981 85.2164 0.000176637 13.1368
3191 0.0999505 956.083 85.3853 0.000176637 13.1228
3192 0.100127 956.185 85.5542 0.000176637 13.1087
3193 0.100304 956.286 85.7231 0.000176637 13.0947
3194 0.10048 956.387 85.892 0.000176637 13.0808
3195 0.100657 956.488 86.0609 0.000176637 13.0669
3196 0.100834 956.588 86.2299 0.000176637 13.053
3197 0.10101 956.688 86.3989 0.000194301 13.0391
3198 0.101205 956.797 86.5848 0.000194301 13.0239
3199 0.101399 956.907 86.7707 0.000194301 13.0088
3200 0.101593 957.015 86.9566 0.000194301 12.9937
3201 0.101787 957.124 87.1426 0.000194301 12.9786
3202 0.101982 957.232 87.3286 0.000194301 12.9636
3203 0.102176 957.339 87.5146 0.000194301 12.9486
3204 0.10237 957.446 87.7006 0.000194301 12.9336
3205 0.102565 957.553 87.8866 0.000194301 12.9188
3206 0.102759 957.659 88.0727 0.000194301 12.9039
3207 0.102953 957.765 88.2588 0.000194301 12.8891
3208 0.103148 957.871 88.4449 0.000194301 12.8743
3209 0.103342 957.976 88.631 0.000194301 12.8596
3210 0.103536 958.081 88.8172 0.000194301 12.8449
3211 0.103731 958.185 89.0033 0.000194301 12.8303
3212 0.103925 958.289 89.1895 0.000194301 12.8156
3213 0.104119 958.393 89.3757 0.000194301 12.8011
3214 0.104313 958.496 89.5619 0.000194301 12.7866
3215 0.104508 958.599 89.7482 0.000194301 12.7721
3216 0.104702 958.702 89.9345 0.000194301 12.7576
3217 0.104896 958.804 90.1207 0.000194301 12.7432
3218 0.105091 958.906 90.3071 0.000194301 12.7289
3219 0.105285 959.007 90.4934 0.000194301 12.7145
3220 0.105479 959.108 90.6797 0.000194301 12.7003
3221 0.105674 959.209 90.8661 0.000194301 12.686
3222 0.105868 959.309 91.0525 0.000194301 12.6718
3223 0.106062 959.409 91.2389 0.000194301 12.6576
3224 0.106256 959.509 91.4253 0.000213731 12.6435
3225 0.10647 959.618 91.6304 0.000213731 12.628
3226 0.106684 959.727 91.8355 0.000213731 12.6126
3227 0.106898 959.835 92.0406 0.000213731 12.5972
3228 0.107111 959.943 92.2458 0.000213731 12.5818
3229 0.107325 960.051 92.451 0.000213731 12.5665
3230 0.107539 960.158 92.6562 0.000213731 12.5512
3231 0.107753 960.265 92.8614 0.000213731 12.536
3232 0.107966 960.371 93.0667 0.000213731 12.5208
3233 0.10818 960.477 93.2719 0.000213731 12.5057
3234 0.108394 960.582 93.4772 0.000213731 12.4906
3235 0.108607 960.687 93.6825 0.000213731 12.4756
3236 0.108821 960.792 93.8879 0.000213731 12.4606
3237 0.109035 960.896 94.0932 0.000213731 12.4456
3238 0.109249 961 94.2986 0.000213731 12.4307
3239 0.109462 961.103 94.504 0.000213731 12.4159
3240 0.109676 961.206 94.7095 0.000213731 12.401
3241 0.10989 961.309 94.9149 0.000213731 12.3863
3242 0.110104 961.411 95.1204 0.000213731 12.3715
3243 0.110317 961.513 95.3259 0.000213731 12.3568
3244 0.110531 961.614 95.5314 0.000213731 12.3422
3245 0.110745 961.716 95.7369 0.000213731 12.3276
3246 0.110958 961.816 95.9425 0.000213731 12.313
3247 0.111172 961.916 96.1481 0.000213731 12.2985
3248 0.111386 962.016 96.3537 0.000235104 12.284
3249 0.111621 962.126 96.5799 0.000235104 12.2681
3250 0.111856 962.235 96.8061 0.000235104 12.2523
3251 0.112091 962.343 97.0323 0.000235104 12.2365
3252 0.112326 962.452 97.2586 0.000235104 12.2208
3253 0.112561 962.559 97.4849 0.000235104 12.2051
3254 0.112797 962.666 97.7112 0.000235104 12.1895
3255 0.113032 962.773 97.9375 0.000235104 12.1739
3256 0.113267 962.88 98.1639 0.000235104 12.1584
3257 0.113502 962.985 98.3903 0.000235104 12.1429
3258 0.113737 963.091 98.6167 0.000235104 12.1275
3259 0.113972 963.196 98.8431 0.000235104 12.1121
3260 0.114207 963.3 99.0696 0.000235104 12.0967
3261 0.114442 963.405 99.2961 0.000235104 12.0815
3262 0.114677 963.508 99.5226 0.000235104 12.0662
3263 0.114913 963.612 99.7491 0.000235104 12.051
3264 0.115148 963.715 99.9757 0.000235104 12.0359
3265 0.115383 963.817 100.202 0.000235104 12.0208
3266 0.115618 963.919 100.429 0.000235104 12.0057
3267 0.115853 964.021 100.656 0.000235104 11.9907
3268 0.116088 964.122 100.882 0.000235104 11.9757
3269 0.116323 964.223 101.109 0.000235104 11.9608
3270 0.116558 964.323 101.336 0.000235104 11.946
3271 0.116793 964.423 101.562 0.000258614 11.9311
3272 0.117052 964.533 101.812 0.000258614 11.9149
3273 0.117311 964.642 102.061 0.000258614 11.8987
3274 0.117569 964.75 102.311 0.000258614 11.8825
3275 0.117828 964.858 102.56 0.000258614 11.8664
3276 0.118086 964.966 102.81 0.000258614 11.8504
3277 0.118345 965.073 103.059 0.000258614 11.8344
3278 0.118604 965.18 103.309 0.000258614 11.8185
3279 0.118862 965.286 103.558 0.000258614 11.8026
3280 0.119121 965.392 103.808 0.000258614 11.7868
3281 0.119379 965.497 104.058 0.000258614 11.771
3282 0.119638 965.602 104.308 0.000258614 11.7553
3283 0.119897 965.706 104.557 0.000258614 11.7396
3284 0.120155 965.81 104.807 0.000258614 11.724
3285 0.120414 965.913 105.057 0.000258614 11.7084
3286 0.120673 966.016 105.307 0.000258614 11.6929
3287 0.120931 966.119 105.556 0.000258614 11.6774
3288 0.12119 966.221 105.806 0.000258614 11.662
3289 0.121448 966.323 106.056 0.000258614 11.6467
3290 0.121707 966.424 106.306 0.000258614 11.6313
3291 0.121966 966.525 106.556 0.000258614 11.6161
3292 0.122224 966.625 106.806 0.000258614 11.6009
3293 0.122483 966.725 107.056 0.000284476 11.5857
3294 0.122767 966.834 107.331 0.000284476 11.5691
3295 0.123052 966.943 107.606 0.000284476 11.5525
3296 0.123336 967.052 107.881 0.000284476 11.536
3297 0.123621 967.16 108.156 0.000284476 11.5195
3298 0.123905 967.267 108.431 0.000284476 11.5031
3299 0.12419 967.374 108.707 0.000284476 11.4868
3300 0.124474 967.48 108.982 0.000284476 11.4705
3301 0.124759 967.586 109.257 0.000284476 11.4543
3302 0.125043 967.691 109.532 0.000284476 11.4381
3303 0.125328 967.796 109.808 0.000284476 11.422
3304 0.125612 967.901 110.083 0.000284476 11.406
3305 0.125897 968.005 110.358 0.000284476 11.39
3306 0.126181 968.108 110.634 0.000284476 11.374
3307 0.126466 968.211 110.909 0.000284476 11.3581
3308 0.12675 968.313 111.185 0.000284476 11.3423
3309 0.127034 968.415 111.46 0.000284476 11.3265
3310 0.127319 968.517 111.736 0.000284476 11.3108
3311 0.127603 968.618 112.011 0.000284476 11.2951
3312 0.127888 968.719 112.287 0.000284476 11.2795
3313 0.128172 968.819 112.562 0.000284476 11.2639
3314 0.128457 968.918 112.838 0.000312923 11.2484
3315 0.12877 969.028 113.141 0.000312923 11.2314
3316 0.129083 969.136 113.444 0.000312923 11.2145
3317 0.129396 969.244 113.748 0.000312923 11.1976
3318 0.129709 969.352 114.051 0.000312923 11.1808
3319 0.130021 969.459 114.354 0.000312923 11.1641
3320 0.130334 969.565 114.658 0.000312923 11.1474
3321 0.130647 969.671 114.961 0.000312923 11.1307
3322 0.13096 969.776 115.265 0.000312923 11.1142
3323 0.131273 969.881 115.568 0.000312923 11.0977
3324 0.131586 969.986 115.872 0.000312923 11.0812
3325 0.131899 970.089 116.175 0.000312923 11.0649
3326 0.132212 970.193 116.479 0.000312923 11.0485
3327 0.132525 970.295 116.782 0.000312923 11.0323
3328 0.132838 970.398 117.086 0.000312923 11.0161
3329 0.133151 970.5 117.39 0.000312923 10.9999
3330 0.133464 970.601 117.693 0.000312923 10.9838
3331 0.133777 970.702 117.997 0.000312923 10.9678
3332 0.134089 970.802 118.301 0.000312923 10.9519
3333 0.134402 970.902 118.605 0.000344216 10.9359
3334 0.134747 971.011 118.939 0.000344216 10.9185
3335 0.135091 971.12 119.273 0.000344216 10.9011
3336 0.135435 971.228 119.607 0.000344216 10.8838
3337 0.135779 971.335 119.942 0.000344216 10.8666
3338 0.136123 971.442 120.276 0.000344216 10.8494
3339 0.136468 971.549 120.61 0.000344216 10.8324
3340 0.136812 971.654 120.945 0.000344216 10.8153
3341 0.137156 971.76 121.279 0.000344216 10.7984
3342 0.1375 971.864 121.614 0.000344216 10.7815
3343 0.137845 971.968 121.948 0.000344216 10.7646
3344 0.138189 972.072 122.283 0.000344216 10.7479
3345 0.138533 972.175 122.618 0.000344216 10.7312
3346 0.138877 972.278 122.952 0.000344216 10.7145
3347 0.139221 972.38 123.287 0.000344216 10.698
3348 0.139566 972.481 123.622 0.000344216 10.6815
3349 0.13991 972.582 123.957 0.000344216 10.665
3350 0.140254 972.682 124.291 0.000344216 10.6486
3351 0.140598 972.782 124.626 0.000378637 10.6323
3352 0.140977 972.891 124.994 0.000378637 10.6144
3353 0.141356 973 125.363 0.000378637 10.5966
3354 0.141734 973.108 125.731 0.000378637 10.5789
3355 0.142113 973.216 126.1 0.000378637 10.5613
3356 0.142491 973.322 126.468 0.000378637 10.5437
3357 0.14287 973.429 126.837 0.000378637 10.5262
3358 0.143249 973.534 127.205 0.000378637 10.5087
3359 0.143627 973.639 127.574 0.000378637 10.4914
3360 0.144006 973.744 127.943 0.000378637 10.4741
3361 0.144385 973.847 128.311 0.000378637 10.4569
3362 0.144763 973.951 128.68 0.000378637 10.4397
3363 0.145142 974.053 129.049 0.000378637 10.4226
3364 0.145521 974.155 129.418 0.000378637 10.4056
3365 0.145899 974.257 129.787 0.000378637 10.3887
3366 0.146278 974.358 130.156 0.000378637 10.3718
3367 0.146656 974.458 130.525 0.000378637 10.355
3368 0.147035 974.558 130.894 0.000416501 10.3383
3369 0.147452 974.668 131.3 0.000416501 10.3199
3370 0.147868 974.776 131.705 0.000416501 10.3017
3371 0.148285 974.884 132.111 0.000416501 10.2835
3372 0.148701 974.991 132.518 0.000416501 10.2654
3373 0.149118 975.098 132.924 0.000416501 10.2474
3374 0.149534 975.204 133.33 0.000416501 10.2295
3375 0.149951 975.309 133.736 0.000416501 10.2117
3376 0.150367 975.414 134.142 0.000416501 10.1939
3377 0.150784 975.518 134.549 0.000416501 10.1762
3378 0.1512 975.621 134.955 0.000416501 10.1586
3379 0.151617 975.724 135.361 0.000416501 10.141
3380 0.152033 975.826 135.768 0.000416501 10.1236
3381 0.15245 975.928 136.174 0.000416501 10.1062
3382 0.152866 976.029 136.581 0.000416501 10.0889
3383 0.153283 976.13 136.987 0.000416501 10.0716
3384 0.153699 976.229 137.394 0.000458151 10.0545
3385 0.154157 976.338 137.841 0.000458151 10.0357
3386 0.154615 976.447 138.288 0.000458151 10.0169
3387 0.155074 976.555 138.736 0.000458151 9.99833
3388 0.155532 976.662 139.183 0.000458151 9.97979
3389 0.15599 976.768 139.631 0.000458151 9.96135
3390 0.156448 976.874 140.078 0.000458151 9.94298
3391 0.156906 976.979 140.526 0.000458151 9.92471
3392 0.157364 977.083 140.973 0.000458151 9.90652
3393 0.157822 977.187 141.421 0.000458151 9.88841
3394 0.158281 977.29 141.869 0.000458151 9.87038
3395 0.158739 977.392 142.317 0.000458151 9.85244
3396 0.159197 977.494 142.764 0.000458151 9.83458
3397 0.159655 977.595 143.212 0.000458151 9.81681
3398 0.160113 977.695 143.66 0.000458151 9.79911
3399 0.160571 977.795 144.108 0.000503966 9.78149
3400 0.161075 977.904 144.601 0.000503966 9.76221
3401 0.161579 978.013 145.094 0.000503966 9.74302
3402 0.162083 978.12 145.587 0.000503966 9.72393
3403 0.162587 978.227 146.08 0.000503966 9.70493
3404 0.163091 978.333 146.573 0.000503966 9.68603
3405 0.163595 978.439 147.066 0.000503966 9.66721
3406 0.164099 978.543 147.559 0.000503966 9.6485
3407 0.164603 978.647 148.052 0.000503966 9.62987
3408 0.165107 978.751 148.545 0.000503966 9.61133
3409 0.165611 978.853 149.039 0.000503966 9.59289
3410 0.166115 978.955 149.532 0.000503966 9.57454
3411 0.166619 979.056 150.025 0.000503966 9.55627
3412 0.167123 979.157 150.519 0.000503966 9.53809
3413 0.167627 979.257 151.012 0.000554363 9.52
3414 0.168181 979.366 151.555 0.000554363 9.50021
3415 0.168736 979.474 152.098 0.000554363 9.48051
3416 0.16929 979.582 152.641 0.000554363 9.46093
3417 0.169844 979.688 153.184 0.000554363 9.44144
3418 0.170399 979.794 153.727 0.000554363 9.42206
3419 0.170953 979.899 154.27 0.000554363 9.40277
3420 0.171507 980.004 154.814 0.000554363 9.38359
3421 0.172062 980.107 155.357 0.000554363 9.36451
3422 0.172616 980.21 155.9 0.000554363 9.34553
3423 0.173171 980.312 156.444 0.000554363 9.32665
3424 0.173725 980.414 156.987 0.000554363 9.30786
3425 0.174279 980.515 157.531 0.000554363 9.28917
3426 0.174834 980.615 158.074 0.000609799 9.27058
3427 0.175443 980.724 158.672 0.000609799 9.25024
3428 0.176053 980.832 159.27 0.000609799 9.23001
3429 0.176663 980.939 159.869 0.000609799 9.20989
3430 0.177273 981.046 160.467 0.000609799 9.18989
3431 0.177883 981.152 161.065 0.000609799 9.17
3432 0.178492 981.257 161.663 0.000609799 9.15022
3433 0.179102 981.361 162.262 0.000609799 9.13055
3434 0.179712 981.464 162.86 0.000609799 9.11099
3435 0.180322 981.567 163.459 0.000609799 9.09153
3436 0.180932 981.669 164.057 0.000609799 9.07219
3437 0.181541 981.77 164.656 0.000609799 9.05295
3438 0.182151 981.87 165.255 0.000609799 9.03381
3439 0.182761 981.97 165.854 0.000670779 9.01478
3440 0.183432 982.078 166.512 0.000670779 8.99396
3441 0.184103 982.186 167.171 0.000670779 8.97327
3442 0.184773 982.293 167.83 0.000670779 8.9527
3443 0.185444 982.399 168.489 0.000670779 8.93226
3444 0.186115 982.504 169.148 0.000670779 8.91193
3445 0.186786 982.608 169.807 0.000670779 8.89173
3446 0.187456 982.711 170.466 0.000670779 8.87164
3447 0.188127 982.813 171.125 0.000670779 8.85167
3448 0.188798 982.915 171.785 0.000670779 8.83182
3449 0.189469 983.016 172.444 0.000670779 8.81208
3450 0.19014 983.116 173.103 0.000737857 8.79246
3451 0.190877 983.225 173.829 0.000737857 8.77101
3452 0.191615 983.333 174.554 0.000737857 8.74969
3453 0.192353 983.44 175.28 0.000737857 8.72851
3454 0.193091 983.546 176.006 0.000737857 8.70746
3455 0.193829 983.652 176.731 0.000737857 8.68654
3456 0.194567 983.756 177.457 0.000737857 8.66576
3457 0.195305 983.859 178.183 0.000737857 8.6451
3458 0.196042 983.962 178.909 0.000737857 8.62458
3459 0.19678 984.063 179.635 0.000737857 8.60418
3460 0.197518 984.164 180.361 0.000737857 8.58391
3461 0.198256 984.264 181.087 0.000811642 8.56376
3462 0.199068 984.373 181.886 0.000811642 8.54174
3463 0.199879 984.481 182.685 0.000811642 8.51987
3464 0.200691 984.588 183.484 0.000811642 8.49815
3465 0.201503 984.693 184.284 0.000811642 8.47658
3466 0.202314 984.798 185.083 0.000811642 8.45514
3467 0.203126 984.902 185.882 0.000811642 8.43385
3468 0.203937 985.005 186.682 0.000811642 8.41271
3469 0.204749 985.107 187.481 0.000811642 8.3917
3470 0.205561 985.208 188.281 0.000811642 8.37083
3471 0.206372 985.308 189.08 0.000811642 8.3501
3472 0.207184 985.407 189.88 0.000892807 8.3295
3473 0.208077 985.515 190.76 0.000892807 8.307
3474 0.20897 985.622 191.64 0.000892807 8.28466
3475 0.209862 985.728 192.52 0.000892807 8.26248
3476 0.210755 985.832 193.4 0.000892807 8.24046
3477 0.211648 985.936 194.28 0.000892807 8.2186
3478 0.212541 986.039 195.161 0.000892807 8.19689
3479 0.213434 986.14 196.041 0.000892807 8.17533
3480 0.214327 986.241 196.921 0.000892807 8.15392
3481 0.215219 986.341 197.802 0.000982087 8.13267
3482 0.216201 986.449 198.771 0.000982087 8.10946
3483 0.217183 986.557 199.74 0.000982087 8.08643
3484 0.218166 986.663 200.709 0.000982087 8.06357
3485 0.219148 986.768 201.678 0.000982087 8.04088
3486 0.22013 986.872 202.647 0.000982087 8.01837
3487 0.221112 986.975 203.616 0.000982087 7.99603
3488 0.222094 987.076 204.585 0.000982087 7.97386
3489 0.223076 987.177 205.555 0.000982087 7.95185
3490 0.224058 987.277 206.524 0.0010803 7.93
3491 0.225138 987.385 207.591 0.0010803 7.90616
3492 0.226219 987.492 208.658 0.0010803 7.88252
3493 0.227299 987.598 209.724 0.0010803 7.85906
3494 0.228379 987.703 210.791 0.0010803 7.8358
3495 0.22946 987.806 211.858 0.0010803 7.81272
3496 0.23054 987.909 212.926 0.0010803 7.78983
3497 0.23162 988.01 213.993 0.0010803 7.76712
3498 0.2327 988.11 215.06 0.0010803 7.74459
3499 0.233781 988.209 216.128 0.00118833 7.72224
3500 0.234969 988.316 217.302 0.00118833 7.69786
3501 0.236157 988.422 218.477 0.00118833 7.67369
3502 0.237346 988.527 219.651 0.00118833 7.64973
3503 0.238534 988.631 220.826 0.00118833 7.62598
3504 0.239722 988.733 222.001 0.00118833 7.60243
3505 0.240911 988.835 223.176 0.00118833 7.57908
3506 0.242099 988.935 224.351 0.00130716 7.55593
3507 0.243406 989.043 225.644 0.00130716 7.53069
3508 0.244713 989.15 226.937 0.00130716 7.50569
3509 0.246021 989.256 228.23 0.00130716 7.48091
3510 0.247328 989.36 229.523 0.00130716 7.45637
3511 0.248635 989.463 230.816 0.00130716 7.43205
3512 0.249942 989.565 232.11 0.00130716 7.40795
3513 0.251249 989.666 233.403 0.00130716 7.38407
3514 0.252556 989.765 234.697 0.00143787 7.3604
3515 0.253994 989.872 236.12 0.00143787 7.33462
3516 0.255432 989.978 237.544 0.00143787 7.30909
3517 0.25687 990.083 238.967 0.00143787 7.28381
3518 0.258308 990.186 240.391 0.00143787 7.25878
3519 0.259746 990.288 241.815 0.00143787 7.23399
3520 0.261184 990.388 243.239 0.00143787 7.20945
3521 0.262621 990.487 244.663 0.00158166 7.18514
3522 0.264203 990.594 246.23 0.00158166 7.15867
3523 0.265785 990.7 247.796 0.00158166 7.13248
3524 0.267366 990.804 249.363 0.00158166 7.10657
3525 0.268948 990.907 250.931 0.00158166 7.08092
3526 0.27053 991.008 252.498 0.00158166 7.05555
3527 0.272111 991.107 254.066 0.00173983 7.03043
3528 0.273851 991.215 255.79 0.00173983 7.0031
3529 0.275591 991.322 257.515 0.00173983 6.97609
3530 0.277331 991.426 259.239 0.00173983 6.94937
3531 0.279071 991.529 260.964 0.00173983 6.92295
3532 0.280811 991.63 262.69 0.00173983 6.89683
3533 0.28255 991.73 264.415 0.00191381 6.871
3534 0.284464 991.838 266.313 0.00191381 6.84291
3535 0.286378 991.944 268.211 0.00191381 6.81516
3536 0.288292 992.048 270.11 0.00191381 6.78775
3537 0.290206 992.15 272.009 0.00191381 6.76066
3538 0.292119 992.251 273.907 0.00191381 6.7339
3539 0.294033 992.35 275.807 0.00210519 6.70745
3540 0.296138 992.457 277.896 0.00210519 6.67871
3541 0.298244 992.562 279.985 0.00210519 6.65035
3542 0.300349 992.665 282.075 0.00210519 6.62235
3543 0.302454 992.767 284.165 0.00210519 6.59471
3544 0.304559 992.866 286.255 0.00231571 6.56742
3545 0.306875 992.974 288.554 0.00231571 6.53779
3546 0.309191 993.079 290.854 0.00231571 6.50858
3547 0.311506 993.182 293.153 0.00231571 6.47977
3548 0.313822 993.284 295.453 0.00231571 6.45135
3549 0.316138 993.383 297.754 0.00254728 6.42332
3550 0.318685 993.49 300.284 0.00254728 6.39292
3551 0.321232 993.595 302.815 0.00254728 6.36297
3552 0.32378 993.698 305.346 0.00254728 6.33346
3553 0.326327 993.798 307.878 0.00254728 6.30439
3554 0.328874 993.897 310.409 0.00280201 6.27573
3555 0.331676 994.003 313.194 0.00280201 6.24469
3556 0.334478 994.107 315.98 0.00280201 6.21414
3557 0.33728 994.208 318.765 0.00280201 6.18407
3558 0.340082 994.308 321.551 0.00308221 6.15447
3559 0.343164 994.414 324.616 0.00308221 6.12244
3560 0.346247 994.518 327.681 0.00308221 6.09095
3561 0.349329 994.62 330.747 0.00308221 6.06
3562 0.352411 994.719 333.812 0.00339043 6.02956
3563 0.355801 994.826 337.185 0.00339043 5.99667
3564 0.359192 994.93 340.558 0.00339043 5.96437
3565 0.362582 995.031 343.932 0.00339043 5.93266
3566 0.365973 995.13 347.305 0.00372947 5.90152
3567 0.369702 995.235 351.017 0.00372947 5.86791
3568 0.373432 995.338 354.729 0.00372947 5.83495
3569 0.377161 995.438 358.441 0.00372947 5.80263
3570 0.380891 995.536 362.154 0.00410242 5.77094
3571 0.384993 995.64 366.238 0.00410242 5.73677
3572 0.389095 995.741 370.323 0.00410242 5.70332
3573 0.393198 995.839 374.408 0.00451266 5.67056
3574 0.397711 995.944 378.902 0.00451266 5.63531
3575 0.402223 996.046 383.397 0.00451266 5.60084
3576 0.406736 996.144 387.892 0.00496393 5.56715
3577 0.4117 996.249 392.837 0.00496393 5.53095
3578 0.416664 996.35 397.782 0.00496393 5.49563
3579 0.421628 996.448 402.728 0.00546032 5.46115
3580 0.427088 996.552 408.169 0.00546032 5.42418
3581 0.432548 996.652 413.611 0.00546032 5.38816
3582 0.438009 996.749 419.054 0.00600636 5.35307
3583 0.444015 996.851 425.041 0.00600636 5.31551
3584 0.450021 996.95 431.028 0.00660699 5.279
3585 0.456628 997.054 437.616 0.00660699 5.24
3586 0.463235 997.154 444.203 0.00726769 5.20218
3587 0.470503 997.259 451.451 0.00726769 5.16188
3588 0.477771 997.36 458.699 0.00726769 5.1229
3589 0.485038 997.456 465.948 0.00799446 5.08517
3590 0.493033 997.557 473.922 0.00799446 5.04506
3591 0.501027 997.653 481.898 0.00879391 5.00636
3592 0.509821 997.754 490.671 0.00879391 4.96532
3593 0.518615 997.849 499.446 0.0096733 4.92583
3594 0.528288 997.949 509.099 0.0106406 4.88408
3595 0.538929 998.052 519.718 0.0106406 4.84012
3596 0.54957 998.15 530.339 0.0117047 4.79809
3597 0.561274 998.25 542.022 0.0117047 4.75398
3598 0.572979 998.345 553.707 0.0128752 4.71196
3599 0.585854 998.442 566.562 0.0141627 4.66802
3600 0.600017 998.541 580.703 0.0155789 4.62227
3601 0.615596 998.642 596.26 0.0155789 4.57487
3602 0.631175 998.735 611.818 0.0171368 4.53033
3603 0.648312 998.829 628.934 0.0188505 4.4844
3604 0.667162 998.923 647.764 0.0207356 4.4373
3605 0.687898 999.017 668.478 0.0228091 4.3893
3606 0.710707 999.111 691.266 0.02509 4.34072
3607 0.735797 999.202 716.335 0.027599 4.29191
3608 0.763396 999.29 743.913 0.0303589 4.24325
3609 0.793755 999.376 774.251 0.0333948 4.19516
3610 0.82715 999.457 807.627 0.0367343 4.14811
3611 0.863884 999.533 844.343 0.0404078 4.10253
3612 0.904292 999.604 884.733 0.0444485 4.0589
3613 0.94874 999.669 929.165 0.0488934 4.01766
3614 0.997634 999.728 978.044 0.0537827 3.97922
3615 1.05142 999.78 1031.81 0.059161 3.94396
3616 1.11058 999.826 1090.96 0.0650771 3.91218
3617 1.17565 999.865 1156.03 0.0715848 3.88409
3618 1.24724 999.898 1227.61 0.0787433 3.8598
3619 1.32598 999.924 1306.34 0.0866176 3.8393
3620 1.4126 999.946 1392.95 0.0952794 3.82247
3621 1.50788 999.962 1488.23 0.104807 3.80907
3622 1.61269 999.975 1593.03 0.115288 3.79876
3623 1.72798 999.984 1708.32 0.126817 3.79112
3624 1.85479 999.99 1835.13 0.139499 3.78571
3625 1.99429 999.994 1974.63 0.153448 3.78204
3626 2.14774 999.997 2128.08 0.168793 3.77967
3627 2.31653 999.998 2296.87 0.185673 3.77824
3628 2.5022 999.999 2482.54 0.20424 3.77742
3629 2.70644 1000 2686.78 0.224664 3.77698
3630 2.93111 1000 2911.45 0.24713 3.77676


# Total time: 2.93111 s
# Total distance: 2911.45 m