# Constants and Parameters

# Final flow velocity (u_f): 700 (m/s) - The final velocity of the flow
# Initial particle velocity (u_0): 0 (m/s) - The initial velocity of the particle
# Particle radius (r_is): 1e-05 (m) - The radius of the particle
# Nozzle radius (r_n): 0.5 (m) - The radius of the nozzle
# Particle density (q): 3990 (kg/m^3) - The density of the particle
# Gas density (q_g): 0.706823 (kg/m^3) - The density of the gas
# Gas constant (R): 8.31446 (J/(kg*K)) - The specific gas constant
# Gamma: 1.4# Molar mass of air (M): 0.029 (kg/mol) - The molar mass of air
# Gas temperature (T): 500 (K) - The temperature of the gas
# Reference temperature (T_0): 291.15 (K) - The reference temperature for gas
# Reference viscosity (eta_0): 1.827e-05 (Pa*s) - The reference viscosity of the gas
# Specific heat capacity of the gas (Cp): 920 (J/(kg*K)) - The specific heat capacity of the gas
# Speed of sound (Sound speed): 447.989 (m/s) - The speed of sound in the gas
# Dynamic viscosity (Viscosity): 4.11167e-05 (Pa*s) - The dynamic viscosity of the gas






# i  t  v  x  h  fi
0 0 0 0 0
1 0.005 149.86 0.005 0.374649
2 0.009 365.635 0.004 1.40564
3 0.0122 422.583 0.0032 2.66679
4 0.01476 457.809 0.00256 3.79369
5 0.016808 481.289 0.002048 4.75532
6 0.0184464 497.685 0.0016384 5.5573
7 0.0197571 509.513 0.00131072 6.21738
8 0.0208057 518.251 0.00104858 6.75622
9 0.0216446 524.82 0.000838861 7.19372
10 0.0223156 529.826 0.000671089 7.5476
11 0.0228525 533.68 0.000536871 7.83308
12 0.023282 536.672 0.000429497 8.06294
13 0.0236256 539.009 0.000343597 8.24774
14 0.0239005 540.844 0.000274878 8.39615
15 0.0241204 542.289 0.000219902 8.51524
16 0.0242963 543.432 0.000175922 8.61074
17 0.0244371 544.338 0.000140737 8.68729
18 0.0245778 545.235 0.000140737 8.76396
19 0.0247185 546.126 0.000140737 8.84076
20 0.0248593 547.008 0.000140737 8.91768
21 0.025 547.884 0.000140737 8.99473
22 0.0251407 548.752 0.000140737 9.0719
23 0.0252815 549.613 0.000140737 9.14919
24 0.0254222 550.467 0.000140737 9.2266
25 0.0255629 551.313 0.000140737 9.30413
26 0.0257037 552.153 0.000140737 9.38178
27 0.0258444 552.986 0.000140737 9.45955
28 0.0259852 553.812 0.000140737 9.53743
29 0.0261259 554.631 0.000140737 9.61543
30 0.0262666 555.444 0.000140737 9.69354
31 0.0264074 556.25 0.000140737 9.77177
32 0.0265481 557.05 0.000140737 9.85011
33 0.0266888 557.843 0.000140737 9.92857
34 0.0268296 558.63 0.000140737 10.0071
35 0.0269703 559.41 0.000140737 10.0858
36 0.0271111 560.184 0.000140737 10.1646
37 0.0272518 560.952 0.000140737 10.2435
38 0.0273925 561.714 0.000140737 10.3225
39 0.0275333 562.47 0.000140737 10.4016
40 0.027674 563.22 0.000140737 10.4808
41 0.0278147 563.964 0.000140737 10.5601
42 0.0279555 564.703 0.000140737 10.6395
43 0.0280962 565.435 0.000140737 10.7191
44 0.028237 566.162 0.000140737 10.7987
45 0.0283777 566.883 0.000140737 10.8784
46 0.0285184 567.598 0.000140737 10.9583
47 0.0286592 568.308 0.000140737 11.0382
48 0.0287999 569.013 0.000140737 11.1182
49 0.0289406 569.712 0.000140737 11.1984
50 0.0290814 570.405 0.000140737 11.2786
51 0.0292221 571.094 0.000140737 11.3589
52 0.0293629 571.777 0.000140737 11.4393
53 0.0295036 572.455 0.000140737 11.5199
54 0.0296443 573.128 0.000140737 11.6005
55 0.0297851 573.795 0.000140737 11.6812
56 0.0299258 574.458 0.000140737 11.762
57 0.0300665 575.116 0.000140737 11.8429
58 0.0302073 575.768 0.000140737 11.9239
59 0.030348 576.416 0.000140737 12.0049
60 0.0304888 577.059 0.000140737 12.0861
61 0.0306295 577.698 0.000140737 12.1674
62 0.0307702 578.331 0.000140737 12.2487
63 0.030911 578.96 0.000140737 12.3301
64 0.0310517 579.584 0.000140737 12.4117
65 0.0311924 580.203 0.000140737 12.4933
66 0.0313332 580.818 0.000140737 12.575
67 0.0314739 581.429 0.000140737 12.6568
68 0.0316147 582.035 0.000140737 12.7386
69 0.0317554 582.637 0.000140737 12.8206
70 0.0318961 583.234 0.000140737 12.9026
71 0.0320369 583.827 0.000140737 12.9848
72 0.0321776 584.415 0.000140737 13.067
73 0.0323183 585 0.000140737 13.1493
74 0.0324591 585.58 0.000140737 13.2316
75 0.0325998 586.156 0.000140737 13.3141
76 0.0327406 586.728 0.000140737 13.3966
77 0.0328813 587.295 0.000140737 13.4792
78 0.033022 587.859 0.000140737 13.5619
79 0.0331628 588.419 0.000140737 13.6447
80 0.0333035 588.975 0.000140737 13.7276
81 0.0334442 589.526 0.000140737 13.8105
82 0.033585 590.074 0.000140737 13.8935
83 0.0337257 590.618 0.000140737 13.9766
84 0.0338665 591.159 0.000140737 14.0597
85 0.0340072 591.695 0.000140737 14.143
86 0.0341479 592.228 0.000140737 14.2263
87 0.0342887 592.757 0.000140737 14.3097
88 0.0344294 593.282 0.000140737 14.3931
89 0.0345701 593.804 0.000140737 14.4767
90 0.0347109 594.322 0.000140737 14.5603
91 0.0348516 594.836 0.000140737 14.644
92 0.0349924 595.347 0.000140737 14.7277
93 0.0351331 595.855 0.000140737 14.8115
94 0.0352738 596.359 0.000140737 14.8954
95 0.0354146 596.859 0.000140737 14.9794
96 0.0355553 597.356 0.000140737 15.0634
97 0.035696 597.85 0.000140737 15.1475
98 0.0358368 598.34 0.000140737 15.2317
99 0.0359775 598.827 0.000140737 15.3159
100 0.0361183 599.311 0.000140737 15.4003
101 0.036259 599.792 0.000140737 15.4846
102 0.0363997 600.269 0.000140737 15.5691
103 0.0365405 600.743 0.000140737 15.6536
104 0.0366812 601.214 0.000140737 15.7382
105 0.0368219 601.681 0.000140737 15.8228
106 0.0369627 602.146 0.000140737 15.9075
107 0.0371034 602.607 0.000140737 15.9923
108 0.0372442 603.066 0.000140737 16.0772
109 0.0373849 603.521 0.000140737 16.1621
110 0.0375256 603.974 0.000140737 16.247
111 0.0376664 604.423 0.000140737 16.3321
112 0.0378071 604.869 0.000140737 16.4172
113 0.0379478 605.313 0.000140737 16.5023
114 0.0380886 605.754 0.000140737 16.5875
115 0.0382293 606.191 0.000140737 16.6728
116 0.0383701 606.626 0.000140737 16.7582
117 0.0385108 607.058 0.000140737 16.8436
118 0.0386515 607.488 0.000140737 16.929
119 0.0387923 607.914 0.000140737 17.0146
120 0.038933 608.338 0.000140737 17.1002
121 0.0390737 608.759 0.000140737 17.1858
122 0.0392145 609.177 0.000140737 17.2715
123 0.0393552 609.592 0.000140737 17.3573
124 0.039496 610.005 0.000140737 17.4431
125 0.0396367 610.416 0.000140737 17.529
126 0.0397774 610.823 0.000140737 17.6149
127 0.0399182 611.228 0.000140737 17.7009
128 0.0400589 611.631 0.000140737 17.7869
129 0.0401996 612.031 0.000140737 17.8731
130 0.0403404 612.428 0.000140737 17.9592
131 0.0404811 612.823 0.000140737 18.0454
132 0.0406219 613.216 0.000140737 18.1317
133 0.0407626 613.605 0.000140737 18.218
134 0.0409033 613.993 0.000140737 18.3044
135 0.0410441 614.378 0.000140737 18.3909
136 0.0411848 614.761 0.000140737 18.4774
137 0.0413255 615.141 0.000140737 18.5639
138 0.0414663 615.519 0.000140737 18.6505
139 0.041607 615.894 0.000140737 18.7372
140 0.0417478 616.268 0.000140737 18.8239
141 0.0418885 616.639 0.000140737 18.9106
142 0.0420292 617.007 0.000140737 18.9974
143 0.04217 617.374 0.000140737 19.0843
144 0.0423107 617.738 0.000140737 19.1712
145 0.0424514 618.1 0.000140737 19.2582
146 0.0425922 618.459 0.000140737 19.3452
147 0.0427329 618.817 0.000140737 19.4323
148 0.0428737 619.172 0.000140737 19.5194
149 0.0430144 619.525 0.000140737 19.6065
150 0.0431551 619.876 0.000140737 19.6937
151 0.0432959 620.225 0.000140737 19.781
152 0.0434366 620.572 0.000140737 19.8683
153 0.0435773 620.916 0.000140737 19.9557
154 0.0437181 621.259 0.000140737 20.0431
155 0.0438588 621.599 0.000140737 20.1306
156 0.0439996 621.938 0.000140737 20.2181
157 0.0441403 622.274 0.000140737 20.3056
158 0.044281 622.609 0.000140737 20.3932
159 0.0444218 622.941 0.000140737 20.4809
160 0.0445625 623.272 0.000140737 20.5686
161 0.0447032 623.6 0.000140737 20.6563
162 0.044844 623.927 0.000140737 20.7441
163 0.0449847 624.251 0.000140737 20.8319
164 0.0451255 624.574 0.000140737 20.9198
165 0.0452662 624.895 0.000140737 21.0077
166 0.0454069 625.214 0.000140737 21.0957
167 0.0455477 625.531 0.000140737 21.1837
168 0.0456884 625.846 0.000140737 21.2718
169 0.0458291 626.159 0.000140737 21.3599
170 0.0459699 626.471 0.000140737 21.448
171 0.0461106 626.78 0.000140737 21.5362
172 0.0462514 627.088 0.000140737 21.6244
173 0.0463921 627.394 0.000140737 21.7127
174 0.0465328 627.699 0.000140737 21.801
175 0.0466736 628.001 0.000140737 21.8894
176 0.0468143 628.302 0.000140737 21.9778
177 0.046955 628.601 0.000140737 22.0662
178 0.0470958 628.898 0.000140737 22.1547
179 0.0472365 629.194 0.000140737 22.2433
180 0.0473773 629.488 0.000140737 22.3318
181 0.047518 629.78 0.000140737 22.4204
182 0.0476587 630.071 0.000140737 22.5091
183 0.0477995 630.36 0.000140737 22.5978
184 0.0479402 630.647 0.000140737 22.6865
185 0.0480809 630.933 0.000140737 22.7753
186 0.0482217 631.217 0.000140737 22.8641
187 0.0483624 631.499 0.000140737 22.953
188 0.0485032 631.78 0.000140737 23.0419
189 0.0486439 632.059 0.000140737 23.1308
190 0.0487846 632.337 0.000140737 23.2198
191 0.0489254 632.613 0.000140737 23.3088
192 0.0490661 632.888 0.000140737 23.3978
193 0.0492068 633.161 0.000140737 23.4869
194 0.0493476 633.432 0.000140737 23.5761
195 0.0494883 633.702 0.000140737 23.6652
196 0.0496291 633.971 0.000140737 23.7544
197 0.0497698 634.238 0.000140737 23.8437
198 0.0499105 634.503 0.000140737 23.933
199 0.0500513 634.767 0.000140737 24.0223
200 0.050192 635.03 0.000140737 24.1116
201 0.0503327 635.291 0.000140737 24.201
202 0.0504735 635.551 0.000140737 24.2904
203 0.0506142 635.809 0.000140737 24.3799
204 0.050755 636.066 0.000140737 24.4694
205 0.0508957 636.321 0.000140737 24.5589
206 0.0510364 636.576 0.000140737 24.6485
207 0.0511772 636.828 0.000140737 24.7381
208 0.0513179 637.079 0.000140737 24.8278
209 0.0514586 637.329 0.000140737 24.9175
210 0.0515994 637.578 0.000140737 25.0072
211 0.0517401 637.825 0.000140737 25.0969
212 0.0518809 638.071 0.000140737 25.1867
213 0.0520216 638.316 0.000140737 25.2765
214 0.0521623 638.559 0.000140737 25.3664
215 0.0523031 638.801 0.000140737 25.4563
216 0.0524438 639.041 0.000140737 25.5462
217 0.0525845 639.281 0.000140737 25.6361
218 0.0527253 639.519 0.000140737 25.7261
219 0.052866 639.756 0.000140737 25.8161
220 0.0530068 639.991 0.000140737 25.9062
221 0.0531475 640.225 0.000140737 25.9963
222 0.0532882 640.458 0.000140737 26.0864
223 0.053429 640.69 0.000140737 26.1765
224 0.0535697 640.921 0.000140737 26.2667
225 0.0537104 641.15 0.000140737 26.357
226 0.0538512 641.378 0.000140737 26.4472
227 0.0539919 641.605 0.000140737 26.5375
228 0.0541327 641.831 0.000140737 26.6278
229 0.0542734 642.055 0.000140737 26.7181
230 0.0544141 642.278 0.000140737 26.8085
231 0.0545549 642.501 0.000140737 26.8989
232 0.0546956 642.722 0.000140737 26.9894
233 0.0548363 642.941 0.000140737 27.0798
234 0.0549771 643.16 0.000140737 27.1703
235 0.0551178 643.378 0.000140737 27.2609
236 0.0552586 643.594 0.000140737 27.3514
237 0.0553993 643.809 0.000140737 27.442
238 0.05554 644.024 0.000140737 27.5326
239 0.0556808 644.237 0.000140737 27.6233
240 0.0558215 644.449 0.000140737 27.714
241 0.0559622 644.659 0.000140737 27.8047
242 0.056103 644.869 0.000140737 27.8954
243 0.0562437 645.078 0.000140737 27.9862
244 0.0563845 645.286 0.000140737 28.077
245 0.0565252 645.492 0.000140737 28.1678
246 0.0566659 645.698 0.000140737 28.2587
247 0.0568067 645.902 0.000140737 28.3496
248 0.0569474 646.106 0.000140737 28.4405
249 0.0570881 646.308 0.000140737 28.5315
250 0.0572289 646.509 0.000140737 28.6224
251 0.0573696 646.71 0.000140737 28.7134
252 0.0575104 646.909 0.000140737 28.8045
253 0.0576511 647.107 0.000140737 28.8955
254 0.0577918 647.305 0.000140737 28.9866
255 0.0579326 647.501 0.000140737 29.0777
256 0.0580733 647.696 0.000140737 29.1689
257 0.058214 647.891 0.000140737 29.26
258 0.0583548 648.084 0.000140737 29.3512
259 0.0584955 648.276 0.000140737 29.4424
260 0.0586363 648.468 0.000140737 29.5337
261 0.058777 648.658 0.000140737 29.625
262 0.0589177 648.848 0.000140737 29.7163
263 0.0590585 649.036 0.000140737 29.8076
264 0.0591992 649.224 0.000140737 29.899
265 0.0593399 649.411 0.000140737 29.9904
266 0.0594807 649.597 0.000140737 30.0818
267 0.0596214 649.781 0.000140737 30.1732
268 0.0597622 649.965 0.000140737 30.2647
269 0.0599029 650.148 0.000140737 30.3561
270 0.0600436 650.331 0.000140737 30.4477
271 0.0601844 650.512 0.000140737 30.5392
272 0.0603251 650.692 0.000140737 30.6308
273 0.0604658 650.872 0.000140737 30.7224
274 0.0606066 651.05 0.000140737 30.814
275 0.0607473 651.228 0.000140737 30.9056
276 0.0608881 651.405 0.000140737 30.9973
277 0.0610288 651.581 0.000140737 31.089
278 0.0611695 651.756 0.000140737 31.1807
279 0.0613103 651.93 0.000140737 31.2724
280 0.061451 652.104 0.000140737 31.3642
281 0.0615917 652.276 0.000140737 31.456
282 0.0617325 652.448 0.000140737 31.5478
283 0.0618732 652.619 0.000140737 31.6396
284 0.062014 652.789 0.000140737 31.7315
285 0.0621547 652.958 0.000140737 31.8234
286 0.0622954 653.127 0.000140737 31.9153
287 0.0624362 653.294 0.000140737 32.0072
288 0.0625769 653.461 0.000140737 32.0991
289 0.0627176 653.627 0.000140737 32.1911
290 0.0628584 653.792 0.000140737 32.2831
291 0.0629991 653.957 0.000140737 32.3752
292 0.0631399 654.121 0.000140737 32.4672
293 0.0632806 654.283 0.000140737 32.5593
294 0.0634213 654.446 0.000140737 32.6514
295 0.0635621 654.607 0.000140737 32.7435
296 0.0637028 654.767 0.000140737 32.8356
297 0.0638435 654.927 0.000140737 32.9278
298 0.0639843 655.086 0.000140737 33.02
299 0.064125 655.245 0.000140737 33.1122
300 0.0642658 655.402 0.000140737 33.2044
301 0.0644065 655.559 0.000140737 33.2967
302 0.0645472 655.715 0.000140737 33.3889
303 0.064688 655.871 0.000140737 33.4812
304 0.0648287 656.025 0.000140737 33.5735
305 0.0649694 656.179 0.000140737 33.6659
306 0.0651102 656.332 0.000140737 33.7582
307 0.0652509 656.485 0.000140737 33.8506
308 0.0653917 656.636 0.000140737 33.943
309 0.0655324 656.787 0.000140737 34.0354
310 0.0656731 656.938 0.000140737 34.1279
311 0.0658139 657.087 0.000140737 34.2204
312 0.0659546 657.236 0.000140737 34.3128
313 0.0660953 657.385 0.000140737 34.4053
314 0.0662361 657.532 0.000140737 34.4979
315 0.0663768 657.679 0.000140737 34.5904
316 0.0665176 657.825 0.000140737 34.683
317 0.0666583 657.971 0.000140737 34.7756
318 0.066799 658.116 0.000140737 34.8682
319 0.0669398 658.26 0.000140737 34.9608
320 0.0670805 658.404 0.000140737 35.0535
321 0.0672212 658.546 0.000140737 35.1462
322 0.067362 658.689 0.000140737 35.2388
323 0.0675027 658.83 0.000140737 35.3316
324 0.0676435 658.971 0.000140737 35.4243
325 0.0677842 659.112 0.000140737 35.517
326 0.0679249 659.251 0.000140737 35.6098
327 0.0680657 659.39 0.000140737 35.7026
328 0.0682064 659.529 0.000140737 35.7954
329 0.0683471 659.666 0.000140737 35.8882
330 0.0684879 659.804 0.000140737 35.9811
331 0.0686286 659.94 0.000140737 36.074
332 0.0687694 660.076 0.000140737 36.1669
333 0.0689101 660.211 0.000140737 36.2598
334 0.0690508 660.346 0.000140737 36.3527
335 0.0691916 660.48 0.000140737 36.4456
336 0.0693323 660.613 0.000140737 36.5386
337 0.069473 660.746 0.000140737 36.6316
338 0.0696138 660.879 0.000140737 36.7246
339 0.0697545 661.01 0.000140737 36.8176
340 0.0698953 661.141 0.000140737 36.9106
341 0.070036 661.272 0.000140737 37.0037
342 0.0701767 661.402 0.000140737 37.0968
343 0.0703175 661.531 0.000140737 37.1899
344 0.0704582 661.66 0.000140737 37.283
345 0.0705989 661.788 0.000140737 37.3761
346 0.0707397 661.916 0.000140737 37.4692
347 0.0708804 662.043 0.000140737 37.5624
348 0.0710212 662.17 0.000140737 37.6556
349 0.0711619 662.296 0.000140737 37.7488
350 0.0713026 662.421 0.000140737 37.842
351 0.0714434 662.546 0.000140737 37.9353
352 0.0715841 662.67 0.000140737 38.0285
353 0.0717248 662.794 0.000140737 38.1218
354 0.0718656 662.917 0.000140737 38.2151
355 0.0720063 663.04 0.000140737 38.3084
356 0.0721471 663.162 0.000140737 38.4017
357 0.0722878 663.284 0.000140737 38.495
358 0.0724285 663.405 0.000140737 38.5884
359 0.0725693 663.525 0.000140737 38.6818
360 0.07271 663.645 0.000140737 38.7752
361 0.0728507 663.765 0.000140737 38.8686
362 0.0729915 663.884 0.000140737 38.962
363 0.0731322 664.002 0.000140737 39.0554
364 0.073273 664.12 0.000140737 39.1489
365 0.0734137 664.238 0.000140737 39.2424
366 0.0735544 664.355 0.000140737 39.3359
367 0.0736952 664.471 0.000140737 39.4294
368 0.0738359 664.587 0.000140737 39.5229
369 0.0739766 664.702 0.000140737 39.6164
370 0.0741174 664.817 0.000140737 39.71
371 0.0742581 664.932 0.000140737 39.8036
372 0.0743989 665.046 0.000140737 39.8971
373 0.0745396 665.159 0.000140737 39.9908
374 0.0746803 665.272 0.000140737 40.0844
375 0.0748211 665.385 0.000140737 40.178
376 0.0749618 665.497 0.000140737 40.2717
377 0.0751025 665.608 0.000140737 40.3653
378 0.0752433 665.719 0.000140737 40.459
379 0.075384 665.83 0.000140737 40.5527
380 0.0755248 665.94 0.000140737 40.6464
381 0.0756655 666.05 0.000140737 40.7402
382 0.0758062 666.159 0.000140737 40.8339
383 0.075947 666.268 0.000140737 40.9277
384 0.0760877 666.376 0.000140737 41.0214
385 0.0762284 666.484 0.000140737 41.1152
386 0.0763692 666.591 0.000140737 41.209
387 0.0765099 666.698 0.000140737 41.3029
388 0.0766507 666.805 0.000140737 41.3967
389 0.0767914 666.911 0.000140737 41.4906
390 0.0769321 667.016 0.000140737 41.5844
391 0.0770729 667.122 0.000140737 41.6783
392 0.0772136 667.226 0.000140737 41.7722
393 0.0773543 667.331 0.000140737 41.8661
394 0.0774951 667.434 0.000140737 41.96
395 0.0776358 667.538 0.000140737 42.054
396 0.0777766 667.641 0.000140737 42.1479
397 0.0779173 667.743 0.000140737 42.2419
398 0.078058 667.845 0.000140737 42.3359
399 0.0781988 667.947 0.000140737 42.4299
400 0.0783395 668.048 0.000140737 42.5239
401 0.0784802 668.149 0.000140737 42.6179
402 0.078621 668.25 0.000140737 42.712
403 0.0787617 668.35 0.000140737 42.806
404 0.0789025 668.449 0.000140737 42.9001
405 0.0790713 668.568 0.000168885 43.013
406 0.0792402 668.687 0.000168885 43.1259
407 0.0794091 668.805 0.000168885 43.2388
408 0.079578 668.922 0.000168885 43.3518
409 0.0797469 669.039 0.000168885 43.4648
410 0.0799158 669.155 0.000168885 43.5778
411 0.0800847 669.27 0.000168885 43.6908
412 0.0802535 669.385 0.000168885 43.8038
413 0.0804224 669.5 0.000168885 43.9169
414 0.0805913 669.613 0.000168885 44.03
415 0.0807602 669.727 0.000168885 44.1431
416 0.0809291 669.84 0.000168885 44.2562
417 0.081098 669.952 0.000168885 44.3693
418 0.0812668 670.063 0.000168885 44.4825
419 0.0814357 670.174 0.000168885 44.5957
420 0.0816046 670.285 0.000168885 44.7089
421 0.0817735 670.395 0.000168885 44.8221
422 0.0819424 670.505 0.000168885 44.9353
423 0.0821113 670.614 0.000168885 45.0485
424 0.0822802 670.722 0.000168885 45.1618
425 0.082449 670.83 0.000168885 45.2751
426 0.0826179 670.937 0.000168885 45.3884
427 0.0827868 671.044 0.000168885 45.5017
428 0.0829557 671.151 0.000168885 45.6151
429 0.0831246 671.257 0.000168885 45.7284
430 0.0832935 671.362 0.000168885 45.8418
431 0.0834624 671.467 0.000168885 45.9552
432 0.0836312 671.571 0.000168885 46.0686
433 0.0838001 671.675 0.000168885 46.182
434 0.083969 671.779 0.000168885 46.2955
435 0.0841379 671.882 0.000168885 46.4089
436 0.0843068 671.984 0.000168885 46.5224
437 0.0844757 672.086 0.000168885 46.6359
438 0.0846445 672.187 0.000168885 46.7494
439 0.0848134 672.288 0.000168885 46.8629
440 0.0849823 672.389 0.000168885 46.9765
441 0.0851512 672.489 0.000168885 47.09
442 0.0853201 672.589 0.000168885 47.2036
443 0.0855227 672.708 0.000202662 47.34
444 0.0857254 672.826 0.000202662 47.4763
445 0.0859281 672.943 0.000202662 47.6127
446 0.0861307 673.06 0.000202662 47.7491
447 0.0863334 673.176 0.000202662 47.8855
448 0.0865361 673.292 0.000202662 48.0219
449 0.0867387 673.407 0.000202662 48.1584
450 0.0869414 673.521 0.000202662 48.2949
451 0.087144 673.635 0.000202662 48.4314
452 0.0873467 673.748 0.000202662 48.5679
453 0.0875494 673.86 0.000202662 48.7045
454 0.087752 673.972 0.000202662 48.841
455 0.0879547 674.083 0.000202662 48.9776
456 0.0881574 674.194 0.000202662 49.1143
457 0.08836 674.304 0.000202662 49.2509
458 0.0885627 674.413 0.000202662 49.3876
459 0.0887653 674.522 0.000202662 49.5243
460 0.088968 674.63 0.000202662 49.661
461 0.0891707 674.738 0.000202662 49.7977
462 0.0893733 674.845 0.000202662 49.9345
463 0.089576 674.951 0.000202662 50.0712
464 0.0897787 675.057 0.000202662 50.208
465 0.0899813 675.162 0.000202662 50.3448
466 0.090184 675.267 0.000202662 50.4817
467 0.0903866 675.371 0.000202662 50.6185
468 0.0905893 675.475 0.000202662 50.7554
469 0.090792 675.578 0.000202662 50.8923
470 0.0909946 675.68 0.000202662 51.0293
471 0.0911973 675.782 0.000202662 51.1662
472 0.0913999 675.883 0.000202662 51.3032
473 0.0916026 675.984 0.000202662 51.4402
474 0.0918053 676.084 0.000202662 51.5772
475 0.0920079 676.184 0.000202662 51.7142
476 0.0922511 676.303 0.000243194 51.8786
477 0.0924943 676.421 0.000243194 52.0431
478 0.0927375 676.539 0.000243194 52.2076
479 0.0929807 676.655 0.000243194 52.3722
480 0.0932239 676.771 0.000243194 52.5368
481 0.0934671 676.887 0.000243194 52.7014
482 0.0937103 677.001 0.000243194 52.866
483 0.0939535 677.115 0.000243194 53.0307
484 0.0941967 677.228 0.000243194 53.1953
485 0.0944399 677.34 0.000243194 53.36
486 0.0946831 677.452 0.000243194 53.5248
487 0.0949263 677.563 0.000243194 53.6896
488 0.0951695 677.673 0.000243194 53.8543
489 0.0954127 677.783 0.000243194 54.0192
490 0.0956558 677.892 0.000243194 54.184
491 0.095899 678 0.000243194 54.3489
492 0.0961422 678.107 0.000243194 54.5138
493 0.0963854 678.214 0.000243194 54.6787
494 0.0966286 678.32 0.000243194 54.8437
495 0.0968718 678.426 0.000243194 55.0086
496 0.097115 678.531 0.000243194 55.1736
497 0.0973582 678.635 0.000243194 55.3387
498 0.0976014 678.739 0.000243194 55.5037
499 0.0978446 678.842 0.000243194 55.6688
500 0.0980878 678.944 0.000243194 55.8339
501 0.098331 679.046 0.000243194 55.999
502 0.0985742 679.147 0.000243194 56.1642
503 0.0988174 679.247 0.000243194 56.3294
504 0.0990606 679.347 0.000243194 56.4946
505 0.0993524 679.466 0.000291833 56.6928
506 0.0996442 679.584 0.000291833 56.8911
507 0.0999361 679.701 0.000291833 57.0895
508 0.100228 679.818 0.000291833 57.2879
509 0.10052 679.933 0.000291833 57.4863
510 0.100812 680.048 0.000291833 57.6847
511 0.101103 680.162 0.000291833 57.8832
512 0.101395 680.275 0.000291833 58.0817
513 0.101687 680.387 0.000291833 58.2802
514 0.101979 680.499 0.000291833 58.4788
515 0.102271 680.61 0.000291833 58.6774
516 0.102563 680.719 0.000291833 58.8761
517 0.102854 680.829 0.000291833 59.0747
518 0.103146 680.937 0.000291833 59.2734
519 0.103438 681.044 0.000291833 59.4722
520 0.10373 681.151 0.000291833 59.6709
521 0.104022 681.257 0.000291833 59.8697
522 0.104314 681.363 0.000291833 60.0686
523 0.104605 681.467 0.000291833 60.2674
524 0.104897 681.571 0.000291833 60.4663
525 0.105189 681.674 0.000291833 60.6652
526 0.105481 681.776 0.000291833 60.8642
527 0.105773 681.878 0.000291833 61.0632
528 0.106065 681.979 0.000291833 61.2622
529 0.106356 682.079 0.000291833 61.4612
530 0.106648 682.179 0.000291833 61.6603
531 0.106998 682.297 0.0003502 61.8992
532 0.107349 682.415 0.0003502 62.1382
533 0.107699 682.531 0.0003502 62.3772
534 0.108049 682.647 0.0003502 62.6162
535 0.108399 682.761 0.0003502 62.8553
536 0.108749 682.875 0.0003502 63.0944
537 0.1091 682.988 0.0003502 63.3336
538 0.10945 683.1 0.0003502 63.5728
539 0.1098 683.211 0.0003502 63.812
540 0.11015 683.321 0.0003502 64.0513
541 0.1105 683.43 0.0003502 64.2906
542 0.110851 683.538 0.0003502 64.53
543 0.111201 683.645 0.0003502 64.7694
544 0.111551 683.752 0.0003502 65.0088
545 0.111901 683.857 0.0003502 65.2483
546 0.112251 683.962 0.0003502 65.4878
547 0.112602 684.066 0.0003502 65.7273
548 0.112952 684.169 0.0003502 65.9669
549 0.113302 684.271 0.0003502 66.2065
550 0.113652 684.373 0.0003502 66.4462
551 0.114002 684.474 0.0003502 66.6858
552 0.114353 684.573 0.0003502 66.9256
553 0.114773 684.692 0.00042024 67.2133
554 0.115193 684.81 0.00042024 67.501
555 0.115613 684.926 0.00042024 67.7888
556 0.116034 685.042 0.00042024 68.0767
557 0.116454 685.156 0.00042024 68.3646
558 0.116874 685.269 0.00042024 68.6526
559 0.117294 685.381 0.00042024 68.9406
560 0.117715 685.492 0.00042024 69.2286
561 0.118135 685.602 0.00042024 69.5167
562 0.118555 685.711 0.00042024 69.8048
563 0.118975 685.82 0.00042024 70.093
564 0.119396 685.927 0.00042024 70.3813
565 0.119816 686.033 0.00042024 70.6695
566 0.120236 686.138 0.00042024 70.9579
567 0.120656 686.242 0.00042024 71.2462
568 0.121076 686.345 0.00042024 71.5346
569 0.121497 686.447 0.00042024 71.8231
570 0.121917 686.548 0.00042024 72.1116
571 0.122337 686.649 0.00042024 72.4001
572 0.122757 686.748 0.00042024 72.6887
573 0.123262 686.866 0.000504288 73.035
574 0.123766 686.983 0.000504288 73.3814
575 0.12427 687.098 0.000504288 73.7279
576 0.124775 687.213 0.000504288 74.0744
577 0.125279 687.326 0.000504288 74.421
578 0.125783 687.438 0.000504288 74.7677
579 0.126287 687.548 0.000504288 75.1143
580 0.126792 687.658 0.000504288 75.4611
581 0.127296 687.766 0.000504288 75.8079
582 0.1278 687.873 0.000504288 76.1548
583 0.128305 687.979 0.000504288 76.5017
584 0.128809 688.084 0.000504288 76.8486
585 0.129313 688.188 0.000504288 77.1957
586 0.129817 688.29 0.000504288 77.5427
587 0.130322 688.392 0.000504288 77.8899
588 0.130826 688.492 0.000504288 78.237
589 0.13133 688.592 0.000504288 78.5842
590 0.131935 688.71 0.000605145 79.001
591 0.132541 688.826 0.000605145 79.4178
592 0.133146 688.941 0.000605145 79.8347
593 0.133751 689.055 0.000605145 80.2516
594 0.134356 689.167 0.000605145 80.6686
595 0.134961 689.278 0.000605145 81.0857
596 0.135566 689.388 0.000605145 81.5028
597 0.136171 689.496 0.000605145 81.9201
598 0.136777 689.603 0.000605145 82.3373
599 0.137382 689.708 0.000605145 82.7547
600 0.137987 689.812 0.000605145 83.1721
601 0.138592 689.915 0.000605145 83.5896
602 0.139197 690.017 0.000605145 84.0071
603 0.139802 690.118 0.000605145 84.4247
604 0.140408 690.217 0.000605145 84.8423
605 0.141134 690.334 0.000726175 85.3436
606 0.14186 690.45 0.000726175 85.8449
607 0.142586 690.565 0.000726175 86.3464
608 0.143312 690.677 0.000726175 86.8479
609 0.144038 690.788 0.000726175 87.3495
610 0.144765 690.898 0.000726175 87.8511
611 0.145491 691.006 0.000726175 88.3529
612 0.146217 691.112 0.000726175 88.8547
613 0.146943 691.217 0.000726175 89.3566
614 0.147669 691.32 0.000726175 89.8586
615 0.148395 691.422 0.000726175 90.3607
616 0.149122 691.523 0.000726175 90.8628
617 0.149848 691.622 0.000726175 91.365
618 0.150719 691.739 0.000871409 91.9677
619 0.151591 691.855 0.000871409 92.5706
620 0.152462 691.968 0.000871409 93.1735
621 0.153333 692.08 0.000871409 93.7765
622 0.154205 692.189 0.000871409 94.3797
623 0.155076 692.297 0.000871409 94.9829
624 0.155948 692.403 0.000871409 95.5862
625 0.156819 692.508 0.000871409 96.1896
626 0.15769 692.611 0.000871409 96.7931
627 0.158562 692.712 0.000871409 97.3967
628 0.159433 692.812 0.000871409 98.0004
629 0.160479 692.929 0.00104569 98.7249
630 0.161525 693.044 0.00104569 99.4496
631 0.16257 693.157 0.00104569 100.174
632 0.163616 693.268 0.00104569 100.899
633 0.164662 693.377 0.00104569 101.624
634 0.165707 693.483 0.00104569 102.349
635 0.166753 693.588 0.00104569 103.075
636 0.167799 693.691 0.00104569 103.8
637 0.168845 693.792 0.00104569 104.525
638 0.16989 693.891 0.00104569 105.251
639 0.171145 694.007 0.00125483 106.122
640 0.1724 694.121 0.00125483 106.993
641 0.173655 694.233 0.00125483 107.864
642 0.17491 694.342 0.00125483 108.735
643 0.176164 694.448 0.00125483 109.606
644 0.177419 694.553 0.00125483 110.478
645 0.178674 694.655 0.00125483 111.349
646 0.179929 694.755 0.00125483 112.221
647 0.181435 694.872 0.0015058 113.267
648 0.18294 694.986 0.0015058 114.314
649 0.184446 695.098 0.0015058 115.36
650 0.185952 695.206 0.0015058 116.407
651 0.187458 695.312 0.0015058 117.454
652 0.188964 695.415 0.0015058 118.501
653 0.190469 695.516 0.0015058 119.548
654 0.191975 695.614 0.0015058 120.596
655 0.193782 695.728 0.00180695 121.853
656 0.195589 695.84 0.00180695 123.11
657 0.197396 695.947 0.00180695 124.367
658 0.199203 696.052 0.00180695 125.625
659 0.20101 696.154 0.00180695 126.883
660 0.202817 696.253 0.00180695 128.141
661 0.204985 696.368 0.00216835 129.651
662 0.207154 696.479 0.00216835 131.161
663 0.209322 696.586 0.00216835 132.671
664 0.21149 696.69 0.00216835 134.182
665 0.213659 696.79 0.00216835 135.692
666 0.215827 696.887 0.00216835 137.203
667 0.218429 696.999 0.00260201 139.017
668 0.221031 697.107 0.00260201 140.831
669 0.223633 697.21 0.00260201 142.645
670 0.226235 697.31 0.00260201 144.459
671 0.229357 697.424 0.00312242 146.636
672 0.23248 697.533 0.00312242 148.814
673 0.235602 697.637 0.00312242 150.992
674 0.238725 697.736 0.00312242 153.171
675 0.242472 697.849 0.0037469 155.785
676 0.246219 697.956 0.0037469 158.4
677 0.249965 698.058 0.0037469 161.016
678 0.253712 698.154 0.0037469 163.632
679 0.258209 698.262 0.00449628 166.771
680 0.262705 698.364 0.00449628 169.911
681 0.267201 698.459 0.00449628 173.051
682 0.272597 698.566 0.00539554 176.82
683 0.277992 698.665 0.00539554 180.589
684 0.284467 698.774 0.00647465 185.113
685 0.290942 698.874 0.00647465 189.638
686 0.298711 698.983 0.00776957 195.068
687 0.306481 699.081 0.00776957 200.499
688 0.315804 699.185 0.00932349 207.018
689 0.325128 699.277 0.00932349 213.537
690 0.336316 699.374 0.0111882 221.361
691 0.349742 699.472 0.0134258 230.751
692 0.365853 699.569 0.016111 242.021
693 0.385186 699.662 0.0193332 255.547
694 0.408386 699.747 0.0231998 271.78
695 0.436225 699.82 0.0278398 291.262
696 0.469633 699.879 0.0334077 314.642
697 0.509723 699.925 0.0400893 342.701
698 0.55783 699.956 0.0481072 376.373


# Total time: 0.55783 s
# Total distance: 376.373 m